#  E (eV)   dos(E)     Int dos(E) EFermi =    0.910 eV
 -18.652  0.1383E+00  0.2188E-02
 -18.642  0.1782E+00  0.3773E-02
 -18.632  0.2143E+00  0.5739E-02
 -18.622  0.2468E+00  0.8047E-02
 -18.612  0.2756E+00  0.1066E-01
 -18.602  0.3006E+00  0.1355E-01
 -18.592  0.3219E+00  0.1666E-01
 -18.582  0.3395E+00  0.1997E-01
 -18.572  0.3534E+00  0.2344E-01
 -18.562  0.3636E+00  0.2703E-01
 -18.552  0.3701E+00  0.3070E-01
 -18.542  0.3741E+00  0.3442E-01
 -18.532  0.3914E+00  0.3830E-01
 -18.522  0.3440E+00  0.4203E-01
 -18.512  0.2726E+00  0.4502E-01
 -18.502  0.2745E+00  0.4776E-01
 -18.492  0.2764E+00  0.5051E-01
 -18.482  0.2782E+00  0.5328E-01
 -18.472  0.2801E+00  0.5608E-01
 -18.462  0.2820E+00  0.5889E-01
 -18.452  0.2838E+00  0.6172E-01
 -18.442  0.2857E+00  0.6456E-01
 -18.432  0.2876E+00  0.6743E-01
 -18.422  0.2894E+00  0.7031E-01
 -18.412  0.2912E+00  0.7322E-01
 -18.402  0.2931E+00  0.7614E-01
 -18.392  0.2949E+00  0.7908E-01
 -18.382  0.2967E+00  0.8204E-01
 -18.372  0.2985E+00  0.8501E-01
 -18.362  0.3003E+00  0.8801E-01
 -18.352  0.3021E+00  0.9102E-01
 -18.342  0.3039E+00  0.9405E-01
 -18.332  0.3057E+00  0.9710E-01
 -18.322  0.3075E+00  0.1002E+00
 -18.312  0.3092E+00  0.1032E+00
 -18.302  0.3110E+00  0.1063E+00
 -18.292  0.3128E+00  0.1095E+00
 -18.282  0.3145E+00  0.1126E+00
 -18.272  0.3163E+00  0.1158E+00
 -18.262  0.3180E+00  0.1189E+00
 -18.252  0.3197E+00  0.1221E+00
 -18.242  0.3215E+00  0.1253E+00
 -18.232  0.3232E+00  0.1285E+00
 -18.222  0.3249E+00  0.1318E+00
 -18.212  0.3266E+00  0.1350E+00
 -18.202  0.3284E+00  0.1383E+00
 -18.192  0.3303E+00  0.1416E+00
 -18.182  0.3287E+00  0.1449E+00
 -18.172  0.3249E+00  0.1482E+00
 -18.162  0.3214E+00  0.1514E+00
 -18.152  0.3181E+00  0.1546E+00
 -18.142  0.3151E+00  0.1578E+00
 -18.132  0.3123E+00  0.1609E+00
 -18.122  0.3098E+00  0.1640E+00
 -18.112  0.3075E+00  0.1671E+00
 -18.102  0.3054E+00  0.1702E+00
 -18.092  0.3037E+00  0.1732E+00
 -18.082  0.3021E+00  0.1762E+00
 -18.072  0.3008E+00  0.1793E+00
 -18.062  0.2998E+00  0.1823E+00
 -18.052  0.2990E+00  0.1853E+00
 -18.042  0.2982E+00  0.1882E+00
 -18.032  0.2970E+00  0.1912E+00
 -18.022  0.2953E+00  0.1942E+00
 -18.012  0.2960E+00  0.1971E+00
 -18.002  0.2966E+00  0.2001E+00
 -17.992  0.2973E+00  0.2031E+00
 -17.982  0.2979E+00  0.2060E+00
 -17.972  0.2985E+00  0.2090E+00
 -17.962  0.2992E+00  0.2120E+00
 -17.952  0.2998E+00  0.2150E+00
 -17.942  0.3004E+00  0.2180E+00
 -17.932  0.3011E+00  0.2210E+00
 -17.922  0.3017E+00  0.2240E+00
 -17.912  0.3023E+00  0.2271E+00
 -17.902  0.3030E+00  0.2301E+00
 -17.892  0.3036E+00  0.2331E+00
 -17.882  0.3042E+00  0.2362E+00
 -17.872  0.3049E+00  0.2392E+00
 -17.862  0.3055E+00  0.2423E+00
 -17.852  0.3061E+00  0.2453E+00
 -17.842  0.3067E+00  0.2484E+00
 -17.832  0.3074E+00  0.2514E+00
 -17.822  0.3080E+00  0.2545E+00
 -17.812  0.3086E+00  0.2576E+00
 -17.802  0.3093E+00  0.2607E+00
 -17.792  0.3099E+00  0.2638E+00
 -17.782  0.3105E+00  0.2669E+00
 -17.772  0.3111E+00  0.2700E+00
 -17.762  0.3118E+00  0.2731E+00
 -17.752  0.3124E+00  0.2762E+00
 -17.742  0.3130E+00  0.2794E+00
 -17.732  0.3136E+00  0.2825E+00
 -17.722  0.3143E+00  0.2856E+00
 -17.712  0.3149E+00  0.2888E+00
 -17.702  0.3155E+00  0.2919E+00
 -17.692  0.3161E+00  0.2951E+00
 -17.682  0.3167E+00  0.2983E+00
 -17.672  0.3174E+00  0.3014E+00
 -17.662  0.3180E+00  0.3046E+00
 -17.652  0.3186E+00  0.3078E+00
 -17.642  0.3192E+00  0.3110E+00
 -17.632  0.3198E+00  0.3142E+00
 -17.622  0.3205E+00  0.3174E+00
 -17.612  0.3211E+00  0.3206E+00
 -17.602  0.3217E+00  0.3238E+00
 -17.592  0.3223E+00  0.3270E+00
 -17.582  0.3229E+00  0.3302E+00
 -17.572  0.3235E+00  0.3335E+00
 -17.562  0.3242E+00  0.3367E+00
 -17.552  0.3240E+00  0.3400E+00
 -17.542  0.3173E+00  0.3432E+00
 -17.532  0.3089E+00  0.3463E+00
 -17.522  0.3087E+00  0.3494E+00
 -17.512  0.3085E+00  0.3525E+00
 -17.502  0.3082E+00  0.3555E+00
 -17.492  0.3080E+00  0.3586E+00
 -17.482  0.3078E+00  0.3617E+00
 -17.472  0.3076E+00  0.3648E+00
 -17.462  0.3075E+00  0.3679E+00
 -17.452  0.3073E+00  0.3709E+00
 -17.442  0.3071E+00  0.3740E+00
 -17.432  0.3070E+00  0.3771E+00
 -17.422  0.3069E+00  0.3801E+00
 -17.412  0.3068E+00  0.3832E+00
 -17.402  0.3067E+00  0.3863E+00
 -17.392  0.3066E+00  0.3893E+00
 -17.382  0.3065E+00  0.3924E+00
 -17.372  0.3064E+00  0.3955E+00
 -17.362  0.3064E+00  0.3985E+00
 -17.352  0.3063E+00  0.4016E+00
 -17.342  0.3063E+00  0.4047E+00
 -17.332  0.3063E+00  0.4077E+00
 -17.322  0.3063E+00  0.4108E+00
 -17.312  0.3063E+00  0.4139E+00
 -17.302  0.3063E+00  0.4169E+00
 -17.292  0.3063E+00  0.4200E+00
 -17.282  0.3064E+00  0.4230E+00
 -17.272  0.3064E+00  0.4261E+00
 -17.262  0.3065E+00  0.4292E+00
 -17.252  0.3066E+00  0.4322E+00
 -17.242  0.3067E+00  0.4353E+00
 -17.232  0.3068E+00  0.4384E+00
 -17.222  0.3068E+00  0.4414E+00
 -17.212  0.3068E+00  0.4445E+00
 -17.202  0.3066E+00  0.4476E+00
 -17.192  0.3069E+00  0.4506E+00
 -17.182  0.3073E+00  0.4537E+00
 -17.172  0.3076E+00  0.4568E+00
 -17.162  0.3080E+00  0.4599E+00
 -17.152  0.3083E+00  0.4629E+00
 -17.142  0.3087E+00  0.4660E+00
 -17.132  0.3090E+00  0.4691E+00
 -17.122  0.3094E+00  0.4722E+00
 -17.112  0.3097E+00  0.4753E+00
 -17.102  0.3101E+00  0.4784E+00
 -17.092  0.3104E+00  0.4815E+00
 -17.082  0.3107E+00  0.4846E+00
 -17.072  0.3111E+00  0.4877E+00
 -17.062  0.3114E+00  0.4908E+00
 -17.052  0.3118E+00  0.4940E+00
 -17.042  0.3121E+00  0.4971E+00
 -17.032  0.3125E+00  0.5002E+00
 -17.022  0.3128E+00  0.5033E+00
 -17.012  0.3132E+00  0.5065E+00
 -17.002  0.3135E+00  0.5096E+00
 -16.992  0.3139E+00  0.5127E+00
 -16.982  0.3142E+00  0.5159E+00
 -16.972  0.3145E+00  0.5190E+00
 -16.962  0.3149E+00  0.5222E+00
 -16.952  0.3152E+00  0.5253E+00
 -16.942  0.3156E+00  0.5285E+00
 -16.932  0.3159E+00  0.5316E+00
 -16.922  0.3163E+00  0.5348E+00
 -16.912  0.3166E+00  0.5379E+00
 -16.902  0.3170E+00  0.5411E+00
 -16.892  0.3173E+00  0.5443E+00
 -16.882  0.3177E+00  0.5475E+00
 -16.872  0.3180E+00  0.5506E+00
 -16.862  0.3183E+00  0.5538E+00
 -16.852  0.3187E+00  0.5570E+00
 -16.842  0.3190E+00  0.5602E+00
 -16.832  0.3194E+00  0.5634E+00
 -16.822  0.3197E+00  0.5666E+00
 -16.812  0.3201E+00  0.5698E+00
 -16.802  0.3204E+00  0.5730E+00
 -16.792  0.3207E+00  0.5762E+00
 -16.782  0.3211E+00  0.5794E+00
 -16.772  0.3214E+00  0.5826E+00
 -16.762  0.3218E+00  0.5858E+00
 -16.752  0.3221E+00  0.5890E+00
 -16.742  0.3224E+00  0.5923E+00
 -16.732  0.3228E+00  0.5955E+00
 -16.722  0.3212E+00  0.5987E+00
 -16.712  0.3203E+00  0.6019E+00
 -16.702  0.3193E+00  0.6051E+00
 -16.692  0.3185E+00  0.6083E+00
 -16.682  0.3177E+00  0.6115E+00
 -16.672  0.3169E+00  0.6147E+00
 -16.662  0.3162E+00  0.6178E+00
 -16.652  0.3155E+00  0.6210E+00
 -16.642  0.3149E+00  0.6241E+00
 -16.632  0.3144E+00  0.6273E+00
 -16.622  0.3139E+00  0.6304E+00
 -16.612  0.3134E+00  0.6336E+00
 -16.602  0.3130E+00  0.6367E+00
 -16.592  0.3127E+00  0.6398E+00
 -16.582  0.3123E+00  0.6429E+00
 -16.572  0.3117E+00  0.6461E+00
 -16.562  0.3101E+00  0.6492E+00
 -16.552  0.3102E+00  0.6523E+00
 -16.542  0.3103E+00  0.6554E+00
 -16.532  0.3104E+00  0.6585E+00
 -16.522  0.3105E+00  0.6616E+00
 -16.512  0.3106E+00  0.6647E+00
 -16.502  0.3107E+00  0.6678E+00
 -16.492  0.3108E+00  0.6709E+00
 -16.482  0.3109E+00  0.6740E+00
 -16.472  0.3110E+00  0.6771E+00
 -16.462  0.3112E+00  0.6802E+00
 -16.452  0.3113E+00  0.6833E+00
 -16.442  0.3114E+00  0.6865E+00
 -16.432  0.3115E+00  0.6896E+00
 -16.422  0.3117E+00  0.6927E+00
 -16.412  0.3118E+00  0.6958E+00
 -16.402  0.3119E+00  0.6989E+00
 -16.392  0.3120E+00  0.7020E+00
 -16.382  0.3122E+00  0.7052E+00
 -16.372  0.3123E+00  0.7083E+00
 -16.362  0.3125E+00  0.7114E+00
 -16.352  0.3126E+00  0.7145E+00
 -16.342  0.3127E+00  0.7177E+00
 -16.332  0.3129E+00  0.7208E+00
 -16.322  0.3130E+00  0.7239E+00
 -16.312  0.3132E+00  0.7271E+00
 -16.302  0.3133E+00  0.7302E+00
 -16.292  0.3135E+00  0.7333E+00
 -16.282  0.3136E+00  0.7365E+00
 -16.272  0.3138E+00  0.7396E+00
 -16.262  0.3139E+00  0.7427E+00
 -16.252  0.3141E+00  0.7459E+00
 -16.242  0.3142E+00  0.7490E+00
 -16.232  0.3144E+00  0.7522E+00
 -16.222  0.3146E+00  0.7553E+00
 -16.212  0.3147E+00  0.7584E+00
 -16.202  0.3149E+00  0.7616E+00
 -16.192  0.3151E+00  0.7647E+00
 -16.182  0.3152E+00  0.7679E+00
 -16.172  0.3154E+00  0.7710E+00
 -16.162  0.3156E+00  0.7742E+00
 -16.152  0.3158E+00  0.7774E+00
 -16.142  0.3160E+00  0.7805E+00
 -16.132  0.3161E+00  0.7837E+00
 -16.122  0.3163E+00  0.7868E+00
 -16.112  0.3165E+00  0.7900E+00
 -16.102  0.3167E+00  0.7932E+00
 -16.092  0.3168E+00  0.7963E+00
 -16.082  0.3155E+00  0.7995E+00
 -16.072  0.3153E+00  0.8027E+00
 -16.062  0.3156E+00  0.8058E+00
 -16.052  0.3158E+00  0.8090E+00
 -16.042  0.3161E+00  0.8121E+00
 -16.032  0.3164E+00  0.8153E+00
 -16.022  0.3166E+00  0.8185E+00
 -16.012  0.3169E+00  0.8216E+00
 -16.002  0.3171E+00  0.8248E+00
 -15.992  0.3174E+00  0.8280E+00
 -15.982  0.3176E+00  0.8311E+00
 -15.972  0.3179E+00  0.8343E+00
 -15.962  0.3182E+00  0.8375E+00
 -15.952  0.3184E+00  0.8407E+00
 -15.942  0.3187E+00  0.8439E+00
 -15.932  0.3189E+00  0.8471E+00
 -15.922  0.3192E+00  0.8502E+00
 -15.912  0.3195E+00  0.8534E+00
 -15.902  0.3197E+00  0.8566E+00
 -15.892  0.3200E+00  0.8598E+00
 -15.882  0.3203E+00  0.8630E+00
 -15.872  0.3205E+00  0.8662E+00
 -15.862  0.3208E+00  0.8694E+00
 -15.852  0.3211E+00  0.8727E+00
 -15.842  0.3213E+00  0.8759E+00
 -15.832  0.3216E+00  0.8791E+00
 -15.822  0.3219E+00  0.8823E+00
 -15.812  0.3222E+00  0.8855E+00
 -15.802  0.3224E+00  0.8887E+00
 -15.792  0.3227E+00  0.8920E+00
 -15.782  0.3230E+00  0.8952E+00
 -15.772  0.3233E+00  0.8984E+00
 -15.762  0.3235E+00  0.9017E+00
 -15.752  0.3238E+00  0.9049E+00
 -15.742  0.3241E+00  0.9081E+00
 -15.732  0.3244E+00  0.9114E+00
 -15.722  0.3246E+00  0.9146E+00
 -15.712  0.3249E+00  0.9179E+00
 -15.702  0.3252E+00  0.9211E+00
 -15.692  0.3255E+00  0.9244E+00
 -15.682  0.3258E+00  0.9276E+00
 -15.672  0.3260E+00  0.9309E+00
 -15.662  0.3263E+00  0.9342E+00
 -15.652  0.3266E+00  0.9374E+00
 -15.642  0.3268E+00  0.9407E+00
 -15.632  0.3246E+00  0.9439E+00
 -15.622  0.3207E+00  0.9472E+00
 -15.612  0.3187E+00  0.9504E+00
 -15.602  0.3167E+00  0.9535E+00
 -15.592  0.3168E+00  0.9567E+00
 -15.582  0.3169E+00  0.9599E+00
 -15.572  0.3170E+00  0.9630E+00
 -15.562  0.3171E+00  0.9662E+00
 -15.552  0.3172E+00  0.9694E+00
 -15.542  0.3174E+00  0.9726E+00
 -15.532  0.3175E+00  0.9757E+00
 -15.522  0.3176E+00  0.9789E+00
 -15.512  0.3178E+00  0.9821E+00
 -15.502  0.3179E+00  0.9853E+00
 -15.492  0.3181E+00  0.9884E+00
 -15.482  0.3182E+00  0.9916E+00
 -15.472  0.3184E+00  0.9948E+00
 -15.462  0.3185E+00  0.9980E+00
 -15.452  0.3187E+00  0.1001E+01
 -15.442  0.3189E+00  0.1004E+01
 -15.432  0.3190E+00  0.1008E+01
 -15.422  0.3192E+00  0.1011E+01
 -15.412  0.3194E+00  0.1014E+01
 -15.402  0.3196E+00  0.1017E+01
 -15.392  0.3198E+00  0.1020E+01
 -15.382  0.3200E+00  0.1024E+01
 -15.372  0.3202E+00  0.1027E+01
 -15.362  0.3204E+00  0.1030E+01
 -15.352  0.3206E+00  0.1033E+01
 -15.342  0.3208E+00  0.1036E+01
 -15.332  0.3210E+00  0.1040E+01
 -15.322  0.3213E+00  0.1043E+01
 -15.312  0.3215E+00  0.1046E+01
 -15.302  0.3187E+00  0.1049E+01
 -15.292  0.3152E+00  0.1052E+01
 -15.282  0.3125E+00  0.1055E+01
 -15.272  0.3098E+00  0.1059E+01
 -15.262  0.3091E+00  0.1062E+01
 -15.252  0.3095E+00  0.1065E+01
 -15.242  0.3097E+00  0.1068E+01
 -15.232  0.3100E+00  0.1071E+01
 -15.222  0.3103E+00  0.1074E+01
 -15.212  0.3105E+00  0.1077E+01
 -15.202  0.3108E+00  0.1080E+01
 -15.192  0.3110E+00  0.1083E+01
 -15.182  0.3113E+00  0.1087E+01
 -15.172  0.3116E+00  0.1090E+01
 -15.162  0.3118E+00  0.1093E+01
 -15.152  0.3121E+00  0.1096E+01
 -15.142  0.3124E+00  0.1099E+01
 -15.132  0.3127E+00  0.1102E+01
 -15.122  0.3130E+00  0.1105E+01
 -15.112  0.3133E+00  0.1108E+01
 -15.102  0.3136E+00  0.1112E+01
 -15.092  0.3139E+00  0.1115E+01
 -15.082  0.3143E+00  0.1118E+01
 -15.072  0.3146E+00  0.1121E+01
 -15.062  0.3149E+00  0.1124E+01
 -15.052  0.3153E+00  0.1127E+01
 -15.042  0.3156E+00  0.1130E+01
 -15.032  0.3160E+00  0.1134E+01
 -15.022  0.3164E+00  0.1137E+01
 -15.012  0.3167E+00  0.1140E+01
 -15.002  0.3171E+00  0.1143E+01
 -14.992  0.3175E+00  0.1146E+01
 -14.982  0.3179E+00  0.1149E+01
 -14.972  0.3183E+00  0.1153E+01
 -14.962  0.3187E+00  0.1156E+01
 -14.952  0.3191E+00  0.1159E+01
 -14.942  0.3195E+00  0.1162E+01
 -14.932  0.3199E+00  0.1165E+01
 -14.922  0.3203E+00  0.1169E+01
 -14.912  0.3208E+00  0.1172E+01
 -14.902  0.3212E+00  0.1175E+01
 -14.892  0.3217E+00  0.1178E+01
 -14.882  0.3221E+00  0.1181E+01
 -14.872  0.3226E+00  0.1185E+01
 -14.862  0.3230E+00  0.1188E+01
 -14.852  0.3235E+00  0.1191E+01
 -14.842  0.3240E+00  0.1194E+01
 -14.832  0.3245E+00  0.1198E+01
 -14.822  0.3250E+00  0.1201E+01
 -14.812  0.3255E+00  0.1204E+01
 -14.802  0.3260E+00  0.1207E+01
 -14.792  0.3265E+00  0.1211E+01
 -14.782  0.3270E+00  0.1214E+01
 -14.772  0.3275E+00  0.1217E+01
 -14.762  0.3280E+00  0.1220E+01
 -14.752  0.3286E+00  0.1224E+01
 -14.742  0.3291E+00  0.1227E+01
 -14.732  0.3296E+00  0.1230E+01
 -14.722  0.3302E+00  0.1234E+01
 -14.712  0.3308E+00  0.1237E+01
 -14.702  0.3314E+00  0.1240E+01
 -14.692  0.3308E+00  0.1243E+01
 -14.682  0.3284E+00  0.1247E+01
 -14.672  0.3263E+00  0.1250E+01
 -14.662  0.3256E+00  0.1253E+01
 -14.652  0.3250E+00  0.1257E+01
 -14.642  0.3243E+00  0.1260E+01
 -14.632  0.3237E+00  0.1263E+01
 -14.622  0.3237E+00  0.1266E+01
 -14.612  0.3244E+00  0.1270E+01
 -14.602  0.3252E+00  0.1273E+01
 -14.592  0.3259E+00  0.1276E+01
 -14.582  0.3266E+00  0.1279E+01
 -14.572  0.3273E+00  0.1283E+01
 -14.562  0.3280E+00  0.1286E+01
 -14.552  0.3287E+00  0.1289E+01
 -14.542  0.3294E+00  0.1292E+01
 -14.532  0.3301E+00  0.1296E+01
 -14.522  0.3307E+00  0.1299E+01
 -14.512  0.3314E+00  0.1302E+01
 -14.502  0.3321E+00  0.1306E+01
 -14.492  0.3327E+00  0.1309E+01
 -14.482  0.3334E+00  0.1312E+01
 -14.472  0.3341E+00  0.1316E+01
 -14.462  0.3348E+00  0.1319E+01
 -14.452  0.3355E+00  0.1322E+01
 -14.442  0.3362E+00  0.1326E+01
 -14.432  0.3369E+00  0.1329E+01
 -14.422  0.3376E+00  0.1332E+01
 -14.412  0.3383E+00  0.1336E+01
 -14.402  0.3389E+00  0.1339E+01
 -14.392  0.3390E+00  0.1343E+01
 -14.382  0.3356E+00  0.1346E+01
 -14.372  0.3263E+00  0.1349E+01
 -14.362  0.3176E+00  0.1352E+01
 -14.352  0.3119E+00  0.1356E+01
 -14.342  0.3163E+00  0.1359E+01
 -14.332  0.3215E+00  0.1362E+01
 -14.322  0.3260E+00  0.1365E+01
 -14.312  0.3300E+00  0.1368E+01
 -14.302  0.3334E+00  0.1372E+01
 -14.292  0.3362E+00  0.1375E+01
 -14.282  0.3384E+00  0.1379E+01
 -14.272  0.3402E+00  0.1382E+01
 -14.262  0.3422E+00  0.1385E+01
 -14.252  0.3453E+00  0.1389E+01
 -14.242  0.3474E+00  0.1392E+01
 -14.232  0.3383E+00  0.1396E+01
 -14.222  0.3295E+00  0.1399E+01
 -14.212  0.3268E+00  0.1402E+01
 -14.202  0.3245E+00  0.1406E+01
 -14.192  0.3222E+00  0.1409E+01
 -14.182  0.3199E+00  0.1412E+01
 -14.172  0.3196E+00  0.1415E+01
 -14.162  0.3215E+00  0.1418E+01
 -14.152  0.3233E+00  0.1422E+01
 -14.142  0.3251E+00  0.1425E+01
 -14.132  0.3268E+00  0.1428E+01
 -14.122  0.3286E+00  0.1431E+01
 -14.112  0.3303E+00  0.1435E+01
 -14.102  0.3320E+00  0.1438E+01
 -14.092  0.3336E+00  0.1441E+01
 -14.082  0.3353E+00  0.1445E+01
 -14.072  0.3369E+00  0.1448E+01
 -14.062  0.3385E+00  0.1451E+01
 -14.052  0.3402E+00  0.1455E+01
 -14.042  0.3418E+00  0.1458E+01
 -14.032  0.3435E+00  0.1462E+01
 -14.022  0.3452E+00  0.1465E+01
 -14.012  0.3470E+00  0.1469E+01
 -14.002  0.3488E+00  0.1472E+01
 -13.992  0.3506E+00  0.1475E+01
 -13.982  0.3524E+00  0.1479E+01
 -13.972  0.3543E+00  0.1483E+01
 -13.962  0.3562E+00  0.1486E+01
 -13.952  0.3581E+00  0.1490E+01
 -13.942  0.3601E+00  0.1493E+01
 -13.932  0.3621E+00  0.1497E+01
 -13.922  0.3641E+00  0.1500E+01
 -13.912  0.3661E+00  0.1504E+01
 -13.902  0.3682E+00  0.1508E+01
 -13.892  0.3703E+00  0.1512E+01
 -13.882  0.3724E+00  0.1515E+01
 -13.872  0.3746E+00  0.1519E+01
 -13.862  0.3767E+00  0.1523E+01
 -13.852  0.3790E+00  0.1526E+01
 -13.842  0.3812E+00  0.1530E+01
 -13.832  0.3835E+00  0.1534E+01
 -13.822  0.3858E+00  0.1538E+01
 -13.812  0.3883E+00  0.1542E+01
 -13.802  0.3887E+00  0.1546E+01
 -13.792  0.3840E+00  0.1550E+01
 -13.782  0.3786E+00  0.1553E+01
 -13.772  0.3732E+00  0.1557E+01
 -13.762  0.3677E+00  0.1561E+01
 -13.752  0.3627E+00  0.1565E+01
 -13.742  0.3599E+00  0.1568E+01
 -13.732  0.3577E+00  0.1572E+01
 -13.722  0.3559E+00  0.1575E+01
 -13.712  0.3677E+00  0.1579E+01
 -13.702  0.3995E+00  0.1583E+01
 -13.692  0.4440E+00  0.1587E+01
 -13.682  0.4834E+00  0.1592E+01
 -13.672  0.5170E+00  0.1597E+01
 -13.662  0.5446E+00  0.1602E+01
 -13.652  0.5665E+00  0.1607E+01
 -13.642  0.5902E+00  0.1613E+01
 -13.632  0.6115E+00  0.1619E+01
 -13.622  0.6262E+00  0.1625E+01
 -13.612  0.6342E+00  0.1632E+01
 -13.602  0.6356E+00  0.1638E+01
 -13.592  0.6303E+00  0.1644E+01
 -13.582  0.6195E+00  0.1651E+01
 -13.572  0.6080E+00  0.1657E+01
 -13.562  0.5963E+00  0.1663E+01
 -13.552  0.5844E+00  0.1669E+01
 -13.542  0.5722E+00  0.1675E+01
 -13.532  0.5599E+00  0.1680E+01
 -13.522  0.5474E+00  0.1686E+01
 -13.512  0.5347E+00  0.1691E+01
 -13.502  0.5218E+00  0.1696E+01
 -13.492  0.5088E+00  0.1702E+01
 -13.482  0.4955E+00  0.1707E+01
 -13.472  0.4820E+00  0.1711E+01
 -13.462  0.4683E+00  0.1716E+01
 -13.452  0.4544E+00  0.1721E+01
 -13.442  0.4403E+00  0.1725E+01
 -13.432  0.4261E+00  0.1730E+01
 -13.422  0.4116E+00  0.1734E+01
 -13.412  0.3969E+00  0.1738E+01
 -13.402  0.3820E+00  0.1742E+01
 -13.392  0.3670E+00  0.1746E+01
 -13.382  0.3517E+00  0.1749E+01
 -13.372  0.3363E+00  0.1753E+01
 -13.362  0.3253E+00  0.1756E+01
 -13.352  0.3205E+00  0.1759E+01
 -13.342  0.3157E+00  0.1762E+01
 -13.332  0.3109E+00  0.1765E+01
 -13.322  0.3061E+00  0.1768E+01
 -13.312  0.3012E+00  0.1772E+01
 -13.302  0.2963E+00  0.1775E+01
 -13.292  0.2913E+00  0.1777E+01
 -13.282  0.2871E+00  0.1780E+01
 -13.272  0.2846E+00  0.1783E+01
 -13.262  0.2824E+00  0.1786E+01
 -13.252  0.2801E+00  0.1789E+01
 -13.242  0.2780E+00  0.1792E+01
 -13.232  0.2758E+00  0.1794E+01
 -13.222  0.2737E+00  0.1797E+01
 -13.212  0.2716E+00  0.1800E+01
 -13.202  0.2694E+00  0.1803E+01
 -13.192  0.2673E+00  0.1805E+01
 -13.182  0.2652E+00  0.1808E+01
 -13.172  0.2631E+00  0.1811E+01
 -13.162  0.2610E+00  0.1813E+01
 -13.152  0.2589E+00  0.1816E+01
 -13.142  0.2567E+00  0.1818E+01
 -13.132  0.2546E+00  0.1821E+01
 -13.122  0.2524E+00  0.1823E+01
 -13.112  0.2502E+00  0.1826E+01
 -13.102  0.2481E+00  0.1828E+01
 -13.092  0.2459E+00  0.1831E+01
 -13.082  0.2437E+00  0.1833E+01
 -13.072  0.2415E+00  0.1836E+01
 -13.062  0.2393E+00  0.1838E+01
 -13.052  0.2371E+00  0.1841E+01
 -13.042  0.2348E+00  0.1843E+01
 -13.032  0.2326E+00  0.1845E+01
 -13.022  0.2303E+00  0.1848E+01
 -13.012  0.2281E+00  0.1850E+01
 -13.002  0.2258E+00  0.1852E+01
 -12.992  0.2235E+00  0.1854E+01
 -12.982  0.2212E+00  0.1857E+01
 -12.972  0.2189E+00  0.1859E+01
 -12.962  0.2166E+00  0.1861E+01
 -12.952  0.2143E+00  0.1863E+01
 -12.942  0.2174E+00  0.1865E+01
 -12.932  0.2418E+00  0.1868E+01
 -12.922  0.2684E+00  0.1870E+01
 -12.912  0.2841E+00  0.1873E+01
 -12.902  0.3052E+00  0.1876E+01
 -12.892  0.3662E+00  0.1879E+01
 -12.882  0.4289E+00  0.1883E+01
 -12.872  0.4853E+00  0.1888E+01
 -12.862  0.5467E+00  0.1893E+01
 -12.852  0.5658E+00  0.1899E+01
 -12.842  0.5203E+00  0.1904E+01
 -12.832  0.4471E+00  0.1909E+01
 -12.822  0.3794E+00  0.1913E+01
 -12.812  0.3136E+00  0.1916E+01
 -12.802  0.2485E+00  0.1919E+01
 -12.792  0.1842E+00  0.1921E+01
 -12.782  0.1581E+00  0.1923E+01
 -12.772  0.1375E+00  0.1925E+01
 -12.762  0.1220E+00  0.1926E+01
 -12.752  0.1116E+00  0.1927E+01
 -12.742  0.1062E+00  0.1928E+01
 -12.732  0.1054E+00  0.1929E+01
 -12.722  0.1053E+00  0.1930E+01
 -12.712  0.1048E+00  0.1931E+01
 -12.702  0.1043E+00  0.1932E+01
 -12.692  0.1038E+00  0.1933E+01
 -12.682  0.1032E+00  0.1934E+01
 -12.672  0.1027E+00  0.1935E+01
 -12.662  0.1021E+00  0.1936E+01
 -12.652  0.1016E+00  0.1937E+01
 -12.642  0.1010E+00  0.1939E+01
 -12.632  0.1005E+00  0.1940E+01
 -12.622  0.9990E-01  0.1941E+01
 -12.612  0.9934E-01  0.1942E+01
 -12.602  0.9879E-01  0.1943E+01
 -12.592  0.9825E-01  0.1943E+01
 -12.582  0.9772E-01  0.1944E+01
 -12.572  0.9721E-01  0.1945E+01
 -12.562  0.9671E-01  0.1946E+01
 -12.552  0.9622E-01  0.1947E+01
 -12.542  0.9575E-01  0.1948E+01
 -12.532  0.9529E-01  0.1949E+01
 -12.522  0.9486E-01  0.1950E+01
 -12.512  0.9542E-01  0.1951E+01
 -12.502  0.9654E-01  0.1952E+01
 -12.492  0.9765E-01  0.1953E+01
 -12.482  0.9876E-01  0.1954E+01
 -12.472  0.9993E-01  0.1955E+01
 -12.462  0.1012E+00  0.1956E+01
 -12.452  0.1024E+00  0.1957E+01
 -12.442  0.1038E+00  0.1958E+01
 -12.432  0.1075E+00  0.1959E+01
 -12.422  0.1119E+00  0.1960E+01
 -12.412  0.1163E+00  0.1961E+01
 -12.402  0.1206E+00  0.1963E+01
 -12.392  0.1248E+00  0.1964E+01
 -12.382  0.1290E+00  0.1965E+01
 -12.372  0.1330E+00  0.1966E+01
 -12.362  0.1371E+00  0.1968E+01
 -12.352  0.1410E+00  0.1969E+01
 -12.342  0.1449E+00  0.1971E+01
 -12.332  0.1487E+00  0.1972E+01
 -12.322  0.1524E+00  0.1974E+01
 -12.312  0.1561E+00  0.1975E+01
 -12.302  0.1597E+00  0.1977E+01
 -12.292  0.1632E+00  0.1978E+01
 -12.282  0.1667E+00  0.1980E+01
 -12.272  0.1701E+00  0.1982E+01
 -12.262  0.1734E+00  0.1983E+01
 -12.252  0.1766E+00  0.1985E+01
 -12.242  0.1798E+00  0.1987E+01
 -12.232  0.1829E+00  0.1989E+01
 -12.222  0.1860E+00  0.1991E+01
 -12.212  0.1890E+00  0.1992E+01
 -12.202  0.1920E+00  0.1994E+01
 -12.192  0.1949E+00  0.1996E+01
 -12.182  0.1978E+00  0.1998E+01
 -12.172  0.2008E+00  0.2000E+01
 -12.162  0.2037E+00  0.2002E+01
 -12.152  0.2066E+00  0.2004E+01
 -12.142  0.2095E+00  0.2006E+01
 -12.132  0.2124E+00  0.2008E+01
 -12.122  0.2152E+00  0.2011E+01
 -12.112  0.2185E+00  0.2013E+01
 -12.102  0.2244E+00  0.2015E+01
 -12.092  0.2306E+00  0.2017E+01
 -12.082  0.2370E+00  0.2020E+01
 -12.072  0.2444E+00  0.2022E+01
 -12.062  0.2539E+00  0.2025E+01
 -12.052  0.2660E+00  0.2027E+01
 -12.042  0.2806E+00  0.2030E+01
 -12.032  0.2978E+00  0.2033E+01
 -12.022  0.3694E+00  0.2036E+01
 -12.012  0.4457E+00  0.2040E+01
 -12.002  0.5113E+00  0.2045E+01
 -11.992  0.5664E+00  0.2050E+01
 -11.982  0.6111E+00  0.2056E+01
 -11.972  0.6422E+00  0.2062E+01
 -11.962  0.6547E+00  0.2069E+01
 -11.952  0.6486E+00  0.2076E+01
 -11.942  0.6239E+00  0.2082E+01
 -11.932  0.5807E+00  0.2088E+01
 -11.922  0.5200E+00  0.2093E+01
 -11.912  0.5166E+00  0.2099E+01
 -11.902  0.5110E+00  0.2104E+01
 -11.892  0.5001E+00  0.2109E+01
 -11.882  0.4839E+00  0.2114E+01
 -11.872  0.4623E+00  0.2118E+01
 -11.862  0.4353E+00  0.2123E+01
 -11.852  0.4031E+00  0.2127E+01
 -11.842  0.3655E+00  0.2131E+01
 -11.832  0.3227E+00  0.2134E+01
 -11.822  0.2886E+00  0.2137E+01
 -11.812  0.2753E+00  0.2140E+01
 -11.802  0.2794E+00  0.2143E+01
 -11.792  0.2852E+00  0.2146E+01
 -11.782  0.2911E+00  0.2149E+01
 -11.772  0.2976E+00  0.2152E+01
 -11.762  0.3055E+00  0.2155E+01
 -11.752  0.3155E+00  0.2158E+01
 -11.742  0.3257E+00  0.2161E+01
 -11.732  0.3353E+00  0.2164E+01
 -11.722  0.3428E+00  0.2168E+01
 -11.712  0.3481E+00  0.2171E+01
 -11.702  0.3525E+00  0.2175E+01
 -11.692  0.3570E+00  0.2178E+01
 -11.682  0.3614E+00  0.2182E+01
 -11.672  0.3658E+00  0.2185E+01
 -11.662  0.3701E+00  0.2189E+01
 -11.652  0.3744E+00  0.2193E+01
 -11.642  0.3787E+00  0.2197E+01
 -11.632  0.3829E+00  0.2200E+01
 -11.622  0.3871E+00  0.2204E+01
 -11.612  0.3913E+00  0.2208E+01
 -11.602  0.3954E+00  0.2212E+01
 -11.592  0.3996E+00  0.2216E+01
 -11.582  0.4036E+00  0.2220E+01
 -11.572  0.4083E+00  0.2224E+01
 -11.562  0.4129E+00  0.2228E+01
 -11.552  0.4177E+00  0.2232E+01
 -11.542  0.4228E+00  0.2237E+01
 -11.532  0.4280E+00  0.2241E+01
 -11.522  0.4331E+00  0.2245E+01
 -11.512  0.4382E+00  0.2250E+01
 -11.502  0.4433E+00  0.2254E+01
 -11.492  0.4484E+00  0.2258E+01
 -11.482  0.4535E+00  0.2263E+01
 -11.472  0.4585E+00  0.2267E+01
 -11.462  0.4636E+00  0.2272E+01
 -11.452  0.4686E+00  0.2277E+01
 -11.442  0.4735E+00  0.2281E+01
 -11.432  0.4785E+00  0.2286E+01
 -11.422  0.4834E+00  0.2291E+01
 -11.412  0.4883E+00  0.2296E+01
 -11.402  0.4932E+00  0.2301E+01
 -11.392  0.4981E+00  0.2306E+01
 -11.382  0.5029E+00  0.2311E+01
 -11.372  0.5077E+00  0.2316E+01
 -11.362  0.5125E+00  0.2321E+01
 -11.352  0.5172E+00  0.2326E+01
 -11.342  0.5219E+00  0.2331E+01
 -11.332  0.5266E+00  0.2336E+01
 -11.322  0.5313E+00  0.2342E+01
 -11.312  0.5360E+00  0.2347E+01
 -11.302  0.5406E+00  0.2353E+01
 -11.292  0.5452E+00  0.2358E+01
 -11.282  0.5497E+00  0.2363E+01
 -11.272  0.5543E+00  0.2369E+01
 -11.262  0.5588E+00  0.2374E+01
 -11.252  0.5617E+00  0.2380E+01
 -11.242  0.5606E+00  0.2386E+01
 -11.232  0.5552E+00  0.2391E+01
 -11.222  0.5457E+00  0.2397E+01
 -11.212  0.5321E+00  0.2402E+01
 -11.202  0.5156E+00  0.2407E+01
 -11.192  0.4964E+00  0.2413E+01
 -11.182  0.4732E+00  0.2417E+01
 -11.172  0.4463E+00  0.2422E+01
 -11.162  0.4162E+00  0.2426E+01
 -11.152  0.3853E+00  0.2430E+01
 -11.142  0.3660E+00  0.2434E+01
 -11.132  0.3568E+00  0.2438E+01
 -11.122  0.3569E+00  0.2441E+01
 -11.112  0.3595E+00  0.2445E+01
 -11.102  0.3620E+00  0.2448E+01
 -11.092  0.3646E+00  0.2452E+01
 -11.082  0.3677E+00  0.2456E+01
 -11.072  0.3718E+00  0.2459E+01
 -11.062  0.3764E+00  0.2463E+01
 -11.052  0.3841E+00  0.2467E+01
 -11.042  0.3961E+00  0.2471E+01
 -11.032  0.3889E+00  0.2475E+01
 -11.022  0.3716E+00  0.2479E+01
 -11.012  0.3586E+00  0.2482E+01
 -11.002  0.3498E+00  0.2486E+01
 -10.992  0.3454E+00  0.2489E+01
 -10.982  0.3452E+00  0.2493E+01
 -10.972  0.3457E+00  0.2496E+01
 -10.962  0.3445E+00  0.2500E+01
 -10.952  0.3422E+00  0.2503E+01
 -10.942  0.3400E+00  0.2506E+01
 -10.932  0.3378E+00  0.2510E+01
 -10.922  0.3367E+00  0.2513E+01
 -10.912  0.3356E+00  0.2517E+01
 -10.902  0.3346E+00  0.2520E+01
 -10.892  0.3336E+00  0.2523E+01
 -10.882  0.3327E+00  0.2527E+01
 -10.872  0.3324E+00  0.2530E+01
 -10.862  0.3320E+00  0.2533E+01
 -10.852  0.3303E+00  0.2537E+01
 -10.842  0.3286E+00  0.2540E+01
 -10.832  0.3269E+00  0.2543E+01
 -10.822  0.3252E+00  0.2546E+01
 -10.812  0.3236E+00  0.2550E+01
 -10.802  0.3220E+00  0.2553E+01
 -10.792  0.3204E+00  0.2556E+01
 -10.782  0.3189E+00  0.2559E+01
 -10.772  0.3174E+00  0.2562E+01
 -10.762  0.3159E+00  0.2566E+01
 -10.752  0.3145E+00  0.2569E+01
 -10.742  0.3131E+00  0.2572E+01
 -10.732  0.3117E+00  0.2575E+01
 -10.722  0.3104E+00  0.2578E+01
 -10.712  0.3090E+00  0.2581E+01
 -10.702  0.3076E+00  0.2584E+01
 -10.692  0.3063E+00  0.2587E+01
 -10.682  0.3049E+00  0.2590E+01
 -10.672  0.3035E+00  0.2593E+01
 -10.662  0.3021E+00  0.2596E+01
 -10.652  0.3007E+00  0.2599E+01
 -10.642  0.2993E+00  0.2602E+01
 -10.632  0.2978E+00  0.2605E+01
 -10.622  0.2963E+00  0.2608E+01
 -10.612  0.2947E+00  0.2611E+01
 -10.602  0.2931E+00  0.2614E+01
 -10.592  0.2925E+00  0.2617E+01
 -10.582  0.2931E+00  0.2620E+01
 -10.572  0.2944E+00  0.2623E+01
 -10.562  0.2959E+00  0.2626E+01
 -10.552  0.2980E+00  0.2629E+01
 -10.542  0.3005E+00  0.2632E+01
 -10.532  0.3031E+00  0.2635E+01
 -10.522  0.3056E+00  0.2638E+01
 -10.512  0.3070E+00  0.2641E+01
 -10.502  0.3076E+00  0.2644E+01
 -10.492  0.3087E+00  0.2647E+01
 -10.482  0.3101E+00  0.2650E+01
 -10.472  0.3097E+00  0.2654E+01
 -10.462  0.3085E+00  0.2657E+01
 -10.452  0.3073E+00  0.2660E+01
 -10.442  0.3061E+00  0.2663E+01
 -10.432  0.3050E+00  0.2666E+01
 -10.422  0.3038E+00  0.2669E+01
 -10.412  0.3027E+00  0.2672E+01
 -10.402  0.3016E+00  0.2675E+01
 -10.392  0.3005E+00  0.2678E+01
 -10.382  0.2995E+00  0.2681E+01
 -10.372  0.2985E+00  0.2684E+01
 -10.362  0.2975E+00  0.2687E+01
 -10.352  0.2965E+00  0.2690E+01
 -10.342  0.2955E+00  0.2693E+01
 -10.332  0.2945E+00  0.2696E+01
 -10.322  0.2935E+00  0.2699E+01
 -10.312  0.2925E+00  0.2702E+01
 -10.302  0.2916E+00  0.2705E+01
 -10.292  0.2906E+00  0.2707E+01
 -10.282  0.2896E+00  0.2710E+01
 -10.272  0.2887E+00  0.2713E+01
 -10.262  0.2877E+00  0.2716E+01
 -10.252  0.2868E+00  0.2719E+01
 -10.242  0.2858E+00  0.2722E+01
 -10.232  0.2849E+00  0.2725E+01
 -10.222  0.2840E+00  0.2728E+01
 -10.212  0.2831E+00  0.2730E+01
 -10.202  0.2822E+00  0.2733E+01
 -10.192  0.2813E+00  0.2736E+01
 -10.182  0.2804E+00  0.2739E+01
 -10.172  0.2795E+00  0.2742E+01
 -10.162  0.2786E+00  0.2744E+01
 -10.152  0.2777E+00  0.2747E+01
 -10.142  0.2768E+00  0.2750E+01
 -10.132  0.2759E+00  0.2753E+01
 -10.122  0.2751E+00  0.2756E+01
 -10.112  0.2742E+00  0.2758E+01
 -10.102  0.2734E+00  0.2761E+01
 -10.092  0.2725E+00  0.2764E+01
 -10.082  0.2717E+00  0.2766E+01
 -10.072  0.2708E+00  0.2769E+01
 -10.062  0.2700E+00  0.2772E+01
 -10.052  0.2692E+00  0.2775E+01
 -10.042  0.2684E+00  0.2777E+01
 -10.032  0.2676E+00  0.2780E+01
 -10.022  0.2667E+00  0.2783E+01
 -10.012  0.2659E+00  0.2785E+01
 -10.002  0.2652E+00  0.2788E+01
  -9.992  0.2644E+00  0.2791E+01
  -9.982  0.2636E+00  0.2793E+01
  -9.972  0.2628E+00  0.2796E+01
  -9.962  0.2620E+00  0.2798E+01
  -9.952  0.2613E+00  0.2801E+01
  -9.942  0.2605E+00  0.2804E+01
  -9.932  0.2598E+00  0.2806E+01
  -9.922  0.2590E+00  0.2809E+01
  -9.912  0.2583E+00  0.2811E+01
  -9.902  0.2576E+00  0.2814E+01
  -9.892  0.2570E+00  0.2817E+01
  -9.882  0.2563E+00  0.2819E+01
  -9.872  0.2557E+00  0.2822E+01
  -9.862  0.2552E+00  0.2824E+01
  -9.852  0.2546E+00  0.2827E+01
  -9.842  0.2541E+00  0.2829E+01
  -9.832  0.2536E+00  0.2832E+01
  -9.822  0.2531E+00  0.2834E+01
  -9.812  0.2538E+00  0.2837E+01
  -9.802  0.2554E+00  0.2840E+01
  -9.792  0.2584E+00  0.2842E+01
  -9.782  0.2620E+00  0.2845E+01
  -9.772  0.2657E+00  0.2847E+01
  -9.762  0.2698E+00  0.2850E+01
  -9.752  0.2729E+00  0.2853E+01
  -9.742  0.2758E+00  0.2856E+01
  -9.732  0.2776E+00  0.2858E+01
  -9.722  0.2794E+00  0.2861E+01
  -9.712  0.2813E+00  0.2864E+01
  -9.702  0.2831E+00  0.2867E+01
  -9.692  0.2848E+00  0.2870E+01
  -9.682  0.2868E+00  0.2872E+01
  -9.672  0.2890E+00  0.2875E+01
  -9.662  0.2911E+00  0.2878E+01
  -9.652  0.2932E+00  0.2881E+01
  -9.642  0.2953E+00  0.2884E+01
  -9.632  0.2976E+00  0.2887E+01
  -9.622  0.3003E+00  0.2890E+01
  -9.612  0.3030E+00  0.2893E+01
  -9.602  0.3056E+00  0.2896E+01
  -9.592  0.3089E+00  0.2899E+01
  -9.582  0.3128E+00  0.2902E+01
  -9.572  0.3167E+00  0.2905E+01
  -9.562  0.3192E+00  0.2909E+01
  -9.552  0.3210E+00  0.2912E+01
  -9.542  0.3228E+00  0.2915E+01
  -9.532  0.3245E+00  0.2918E+01
  -9.522  0.3262E+00  0.2921E+01
  -9.512  0.3279E+00  0.2925E+01
  -9.502  0.3296E+00  0.2928E+01
  -9.492  0.3312E+00  0.2931E+01
  -9.482  0.3327E+00  0.2935E+01
  -9.472  0.3342E+00  0.2938E+01
  -9.462  0.3357E+00  0.2941E+01
  -9.452  0.3372E+00  0.2945E+01
  -9.442  0.3386E+00  0.2948E+01
  -9.432  0.3400E+00  0.2951E+01
  -9.422  0.3414E+00  0.2955E+01
  -9.412  0.3428E+00  0.2958E+01
  -9.402  0.3441E+00  0.2962E+01
  -9.392  0.3454E+00  0.2965E+01
  -9.382  0.3467E+00  0.2969E+01
  -9.372  0.3480E+00  0.2972E+01
  -9.362  0.3492E+00  0.2976E+01
  -9.352  0.3504E+00  0.2979E+01
  -9.342  0.3516E+00  0.2983E+01
  -9.332  0.3528E+00  0.2986E+01
  -9.322  0.3540E+00  0.2990E+01
  -9.312  0.3551E+00  0.2993E+01
  -9.302  0.3562E+00  0.2997E+01
  -9.292  0.3572E+00  0.3000E+01
  -9.282  0.3583E+00  0.3004E+01
  -9.272  0.3593E+00  0.3007E+01
  -9.262  0.3603E+00  0.3011E+01
  -9.252  0.3613E+00  0.3015E+01
  -9.242  0.3622E+00  0.3018E+01
  -9.232  0.3631E+00  0.3022E+01
  -9.222  0.3640E+00  0.3026E+01
  -9.212  0.3649E+00  0.3029E+01
  -9.202  0.3657E+00  0.3033E+01
  -9.192  0.3666E+00  0.3037E+01
  -9.182  0.3674E+00  0.3040E+01
  -9.172  0.3681E+00  0.3044E+01
  -9.162  0.3689E+00  0.3048E+01
  -9.152  0.3696E+00  0.3051E+01
  -9.142  0.3703E+00  0.3055E+01
  -9.132  0.3710E+00  0.3059E+01
  -9.122  0.3716E+00  0.3062E+01
  -9.112  0.3722E+00  0.3066E+01
  -9.102  0.3728E+00  0.3070E+01
  -9.092  0.3734E+00  0.3074E+01
  -9.082  0.3740E+00  0.3077E+01
  -9.072  0.3745E+00  0.3081E+01
  -9.062  0.3750E+00  0.3085E+01
  -9.052  0.3755E+00  0.3089E+01
  -9.042  0.3759E+00  0.3092E+01
  -9.032  0.3764E+00  0.3096E+01
  -9.022  0.3768E+00  0.3100E+01
  -9.012  0.3770E+00  0.3104E+01
  -9.002  0.3767E+00  0.3107E+01
  -8.992  0.3771E+00  0.3111E+01
  -8.982  0.3777E+00  0.3115E+01
  -8.972  0.3783E+00  0.3119E+01
  -8.962  0.3799E+00  0.3122E+01
  -8.952  0.3831E+00  0.3126E+01
  -8.942  0.3864E+00  0.3130E+01
  -8.932  0.3898E+00  0.3134E+01
  -8.922  0.3923E+00  0.3138E+01
  -8.912  0.3917E+00  0.3142E+01
  -8.902  0.3883E+00  0.3146E+01
  -8.892  0.3917E+00  0.3150E+01
  -8.882  0.3962E+00  0.3154E+01
  -8.872  0.3906E+00  0.3158E+01
  -8.862  0.3884E+00  0.3161E+01
  -8.852  0.3934E+00  0.3165E+01
  -8.842  0.3912E+00  0.3169E+01
  -8.832  0.3895E+00  0.3173E+01
  -8.822  0.3892E+00  0.3177E+01
  -8.812  0.3893E+00  0.3181E+01
  -8.802  0.3893E+00  0.3185E+01
  -8.792  0.3894E+00  0.3189E+01
  -8.782  0.3895E+00  0.3193E+01
  -8.772  0.3895E+00  0.3197E+01
  -8.762  0.3901E+00  0.3200E+01
  -8.752  0.3909E+00  0.3204E+01
  -8.742  0.3903E+00  0.3208E+01
  -8.732  0.3898E+00  0.3212E+01
  -8.722  0.3892E+00  0.3216E+01
  -8.712  0.3891E+00  0.3220E+01
  -8.702  0.3892E+00  0.3224E+01
  -8.692  0.3893E+00  0.3228E+01
  -8.682  0.3894E+00  0.3232E+01
  -8.672  0.3895E+00  0.3235E+01
  -8.662  0.3896E+00  0.3239E+01
  -8.652  0.3897E+00  0.3243E+01
  -8.642  0.3898E+00  0.3247E+01
  -8.632  0.3899E+00  0.3251E+01
  -8.622  0.3901E+00  0.3255E+01
  -8.612  0.3910E+00  0.3259E+01
  -8.602  0.3928E+00  0.3263E+01
  -8.592  0.3948E+00  0.3267E+01
  -8.582  0.3967E+00  0.3271E+01
  -8.572  0.3986E+00  0.3275E+01
  -8.562  0.3997E+00  0.3279E+01
  -8.552  0.4008E+00  0.3283E+01
  -8.542  0.3975E+00  0.3287E+01
  -8.532  0.3933E+00  0.3291E+01
  -8.522  0.3900E+00  0.3295E+01
  -8.512  0.3870E+00  0.3298E+01
  -8.502  0.3845E+00  0.3302E+01
  -8.492  0.3831E+00  0.3306E+01
  -8.482  0.3820E+00  0.3310E+01
  -8.472  0.3812E+00  0.3314E+01
  -8.462  0.3807E+00  0.3318E+01
  -8.452  0.3805E+00  0.3321E+01
  -8.442  0.3806E+00  0.3325E+01
  -8.432  0.3807E+00  0.3329E+01
  -8.422  0.3808E+00  0.3333E+01
  -8.412  0.3809E+00  0.3337E+01
  -8.402  0.3811E+00  0.3340E+01
  -8.392  0.3812E+00  0.3344E+01
  -8.382  0.3813E+00  0.3348E+01
  -8.372  0.3814E+00  0.3352E+01
  -8.362  0.3816E+00  0.3356E+01
  -8.352  0.3817E+00  0.3359E+01
  -8.342  0.3818E+00  0.3363E+01
  -8.332  0.3820E+00  0.3367E+01
  -8.322  0.3821E+00  0.3371E+01
  -8.312  0.3822E+00  0.3375E+01
  -8.302  0.3824E+00  0.3379E+01
  -8.292  0.3825E+00  0.3382E+01
  -8.282  0.3827E+00  0.3386E+01
  -8.272  0.3828E+00  0.3390E+01
  -8.262  0.3830E+00  0.3394E+01
  -8.252  0.3831E+00  0.3398E+01
  -8.242  0.3832E+00  0.3402E+01
  -8.232  0.3834E+00  0.3405E+01
  -8.222  0.3836E+00  0.3409E+01
  -8.212  0.3838E+00  0.3413E+01
  -8.202  0.3840E+00  0.3417E+01
  -8.192  0.3843E+00  0.3421E+01
  -8.182  0.3846E+00  0.3425E+01
  -8.172  0.3839E+00  0.3428E+01
  -8.162  0.3816E+00  0.3432E+01
  -8.152  0.3803E+00  0.3436E+01
  -8.142  0.3792E+00  0.3440E+01
  -8.132  0.3783E+00  0.3444E+01
  -8.122  0.3784E+00  0.3447E+01
  -8.112  0.3787E+00  0.3451E+01
  -8.102  0.3792E+00  0.3455E+01
  -8.092  0.3797E+00  0.3459E+01
  -8.082  0.3802E+00  0.3463E+01
  -8.072  0.3807E+00  0.3466E+01
  -8.062  0.3812E+00  0.3470E+01
  -8.052  0.3817E+00  0.3474E+01
  -8.042  0.3822E+00  0.3478E+01
  -8.032  0.3827E+00  0.3482E+01
  -8.022  0.3832E+00  0.3485E+01
  -8.012  0.3837E+00  0.3489E+01
  -8.002  0.3842E+00  0.3493E+01
  -7.992  0.3847E+00  0.3497E+01
  -7.982  0.3852E+00  0.3501E+01
  -7.972  0.3857E+00  0.3505E+01
  -7.962  0.3862E+00  0.3509E+01
  -7.952  0.3867E+00  0.3512E+01
  -7.942  0.3872E+00  0.3516E+01
  -7.932  0.3877E+00  0.3520E+01
  -7.922  0.3882E+00  0.3524E+01
  -7.912  0.3887E+00  0.3528E+01
  -7.902  0.3892E+00  0.3532E+01
  -7.892  0.3897E+00  0.3536E+01
  -7.882  0.3902E+00  0.3540E+01
  -7.872  0.3907E+00  0.3544E+01
  -7.862  0.3911E+00  0.3547E+01
  -7.852  0.3916E+00  0.3551E+01
  -7.842  0.3921E+00  0.3555E+01
  -7.832  0.3926E+00  0.3559E+01
  -7.822  0.3931E+00  0.3563E+01
  -7.812  0.3936E+00  0.3567E+01
  -7.802  0.3941E+00  0.3571E+01
  -7.792  0.3946E+00  0.3575E+01
  -7.782  0.3951E+00  0.3579E+01
  -7.772  0.3956E+00  0.3583E+01
  -7.762  0.3961E+00  0.3587E+01
  -7.752  0.3966E+00  0.3591E+01
  -7.742  0.3971E+00  0.3595E+01
  -7.732  0.3975E+00  0.3599E+01
  -7.722  0.3980E+00  0.3603E+01
  -7.712  0.3985E+00  0.3607E+01
  -7.702  0.3990E+00  0.3611E+01
  -7.692  0.3995E+00  0.3615E+01
  -7.682  0.4000E+00  0.3619E+01
  -7.672  0.4005E+00  0.3623E+01
  -7.662  0.4010E+00  0.3627E+01
  -7.652  0.4015E+00  0.3631E+01
  -7.642  0.4019E+00  0.3635E+01
  -7.632  0.4027E+00  0.3639E+01
  -7.622  0.4031E+00  0.3643E+01
  -7.612  0.4030E+00  0.3647E+01
  -7.602  0.4036E+00  0.3651E+01
  -7.592  0.4042E+00  0.3655E+01
  -7.582  0.4034E+00  0.3659E+01
  -7.572  0.4026E+00  0.3663E+01
  -7.562  0.4021E+00  0.3667E+01
  -7.552  0.4015E+00  0.3671E+01
  -7.542  0.4017E+00  0.3675E+01
  -7.532  0.4021E+00  0.3679E+01
  -7.522  0.4025E+00  0.3683E+01
  -7.512  0.4028E+00  0.3687E+01
  -7.502  0.4032E+00  0.3691E+01
  -7.492  0.4035E+00  0.3695E+01
  -7.482  0.4038E+00  0.3699E+01
  -7.472  0.4041E+00  0.3703E+01
  -7.462  0.4043E+00  0.3707E+01
  -7.452  0.4046E+00  0.3711E+01
  -7.442  0.4048E+00  0.3715E+01
  -7.432  0.4051E+00  0.3719E+01
  -7.422  0.4053E+00  0.3723E+01
  -7.412  0.4053E+00  0.3727E+01
  -7.402  0.4052E+00  0.3732E+01
  -7.392  0.4045E+00  0.3736E+01
  -7.382  0.3988E+00  0.3740E+01
  -7.372  0.3931E+00  0.3744E+01
  -7.362  0.3879E+00  0.3747E+01
  -7.352  0.3905E+00  0.3751E+01
  -7.342  0.3936E+00  0.3755E+01
  -7.332  0.3965E+00  0.3759E+01
  -7.322  0.3993E+00  0.3763E+01
  -7.312  0.4021E+00  0.3767E+01
  -7.302  0.4051E+00  0.3771E+01
  -7.292  0.4079E+00  0.3775E+01
  -7.282  0.4106E+00  0.3779E+01
  -7.272  0.4131E+00  0.3783E+01
  -7.262  0.4154E+00  0.3788E+01
  -7.252  0.4176E+00  0.3792E+01
  -7.242  0.4196E+00  0.3796E+01
  -7.232  0.4214E+00  0.3800E+01
  -7.222  0.4223E+00  0.3804E+01
  -7.212  0.4213E+00  0.3809E+01
  -7.202  0.4210E+00  0.3813E+01
  -7.192  0.4214E+00  0.3817E+01
  -7.182  0.4177E+00  0.3821E+01
  -7.172  0.4155E+00  0.3825E+01
  -7.162  0.4152E+00  0.3830E+01
  -7.152  0.4152E+00  0.3834E+01
  -7.142  0.4152E+00  0.3838E+01
  -7.132  0.4161E+00  0.3842E+01
  -7.122  0.4170E+00  0.3846E+01
  -7.112  0.4180E+00  0.3850E+01
  -7.102  0.4189E+00  0.3855E+01
  -7.092  0.4198E+00  0.3859E+01
  -7.082  0.4207E+00  0.3863E+01
  -7.072  0.4216E+00  0.3867E+01
  -7.062  0.4225E+00  0.3871E+01
  -7.052  0.4234E+00  0.3876E+01
  -7.042  0.4244E+00  0.3880E+01
  -7.032  0.4253E+00  0.3884E+01
  -7.022  0.4262E+00  0.3888E+01
  -7.012  0.4271E+00  0.3893E+01
  -7.002  0.4281E+00  0.3897E+01
  -6.992  0.4290E+00  0.3901E+01
  -6.982  0.4299E+00  0.3905E+01
  -6.972  0.4308E+00  0.3910E+01
  -6.962  0.4318E+00  0.3914E+01
  -6.952  0.4327E+00  0.3918E+01
  -6.942  0.4336E+00  0.3923E+01
  -6.932  0.4346E+00  0.3927E+01
  -6.922  0.4355E+00  0.3931E+01
  -6.912  0.4365E+00  0.3936E+01
  -6.902  0.4374E+00  0.3940E+01
  -6.892  0.4384E+00  0.3945E+01
  -6.882  0.4393E+00  0.3949E+01
  -6.872  0.4403E+00  0.3953E+01
  -6.862  0.4413E+00  0.3958E+01
  -6.852  0.4426E+00  0.3962E+01
  -6.842  0.4438E+00  0.3967E+01
  -6.832  0.4451E+00  0.3971E+01
  -6.822  0.4464E+00  0.3976E+01
  -6.812  0.4477E+00  0.3980E+01
  -6.802  0.4494E+00  0.3984E+01
  -6.792  0.4520E+00  0.3989E+01
  -6.782  0.4562E+00  0.3994E+01
  -6.772  0.4638E+00  0.3998E+01
  -6.762  0.5001E+00  0.4003E+01
  -6.752  0.5343E+00  0.4008E+01
  -6.742  0.5662E+00  0.4014E+01
  -6.732  0.5961E+00  0.4019E+01
  -6.722  0.6236E+00  0.4026E+01
  -6.712  0.6473E+00  0.4032E+01
  -6.702  0.6676E+00  0.4038E+01
  -6.692  0.6867E+00  0.4045E+01
  -6.682  0.7048E+00  0.4052E+01
  -6.672  0.7216E+00  0.4059E+01
  -6.662  0.7372E+00  0.4067E+01
  -6.652  0.7516E+00  0.4074E+01
  -6.642  0.7715E+00  0.4082E+01
  -6.632  0.7834E+00  0.4089E+01
  -6.622  0.7857E+00  0.4097E+01
  -6.612  0.7861E+00  0.4105E+01
  -6.602  0.7941E+00  0.4113E+01
  -6.592  0.7776E+00  0.4121E+01
  -6.582  0.7223E+00  0.4128E+01
  -6.572  0.6878E+00  0.4135E+01
  -6.562  0.6811E+00  0.4142E+01
  -6.552  0.6754E+00  0.4149E+01
  -6.542  0.6722E+00  0.4156E+01
  -6.532  0.6740E+00  0.4162E+01
  -6.522  0.6754E+00  0.4169E+01
  -6.512  0.6766E+00  0.4176E+01
  -6.502  0.6780E+00  0.4183E+01
  -6.492  0.6796E+00  0.4190E+01
  -6.482  0.6816E+00  0.4196E+01
  -6.472  0.6838E+00  0.4203E+01
  -6.462  0.6867E+00  0.4210E+01
  -6.452  0.6905E+00  0.4217E+01
  -6.442  0.6952E+00  0.4224E+01
  -6.432  0.7000E+00  0.4231E+01
  -6.422  0.7049E+00  0.4238E+01
  -6.412  0.7098E+00  0.4245E+01
  -6.402  0.7147E+00  0.4252E+01
  -6.392  0.7197E+00  0.4259E+01
  -6.382  0.7247E+00  0.4266E+01
  -6.372  0.7297E+00  0.4274E+01
  -6.362  0.7349E+00  0.4281E+01
  -6.352  0.7401E+00  0.4288E+01
  -6.342  0.7454E+00  0.4296E+01
  -6.332  0.7508E+00  0.4303E+01
  -6.322  0.7563E+00  0.4311E+01
  -6.312  0.7620E+00  0.4318E+01
  -6.302  0.7678E+00  0.4326E+01
  -6.292  0.7738E+00  0.4334E+01
  -6.282  0.7799E+00  0.4342E+01
  -6.272  0.7862E+00  0.4349E+01
  -6.262  0.7926E+00  0.4357E+01
  -6.252  0.7992E+00  0.4365E+01
  -6.242  0.8059E+00  0.4373E+01
  -6.232  0.8128E+00  0.4381E+01
  -6.222  0.8194E+00  0.4390E+01
  -6.212  0.8258E+00  0.4398E+01
  -6.202  0.8320E+00  0.4406E+01
  -6.192  0.8368E+00  0.4414E+01
  -6.182  0.8266E+00  0.4423E+01
  -6.172  0.8138E+00  0.4431E+01
  -6.162  0.8047E+00  0.4439E+01
  -6.152  0.7958E+00  0.4447E+01
  -6.142  0.7871E+00  0.4455E+01
  -6.132  0.7890E+00  0.4463E+01
  -6.122  0.7945E+00  0.4471E+01
  -6.112  0.7997E+00  0.4479E+01
  -6.102  0.8047E+00  0.4487E+01
  -6.092  0.8093E+00  0.4495E+01
  -6.082  0.8140E+00  0.4503E+01
  -6.072  0.8195E+00  0.4511E+01
  -6.062  0.8248E+00  0.4519E+01
  -6.052  0.8297E+00  0.4528E+01
  -6.042  0.8306E+00  0.4536E+01
  -6.032  0.8255E+00  0.4544E+01
  -6.022  0.8325E+00  0.4552E+01
  -6.012  0.8932E+00  0.4561E+01
  -6.002  0.8945E+00  0.4570E+01
  -5.992  0.8969E+00  0.4579E+01
  -5.982  0.9006E+00  0.4588E+01
  -5.972  0.9043E+00  0.4597E+01
  -5.962  0.9043E+00  0.4606E+01
  -5.952  0.9008E+00  0.4615E+01
  -5.942  0.8975E+00  0.4624E+01
  -5.932  0.9026E+00  0.4633E+01
  -5.922  0.9141E+00  0.4642E+01
  -5.912  0.9257E+00  0.4651E+01
  -5.902  0.9371E+00  0.4661E+01
  -5.892  0.9484E+00  0.4670E+01
  -5.882  0.9579E+00  0.4680E+01
  -5.872  0.9647E+00  0.4689E+01
  -5.862  0.9689E+00  0.4699E+01
  -5.852  0.9710E+00  0.4709E+01
  -5.842  0.9729E+00  0.4718E+01
  -5.832  0.9751E+00  0.4728E+01
  -5.822  0.9776E+00  0.4738E+01
  -5.812  0.9805E+00  0.4748E+01
  -5.802  0.9837E+00  0.4757E+01
  -5.792  0.9872E+00  0.4767E+01
  -5.782  0.9910E+00  0.4777E+01
  -5.772  0.9950E+00  0.4787E+01
  -5.762  0.9990E+00  0.4797E+01
  -5.752  0.1003E+01  0.4807E+01
  -5.742  0.1007E+01  0.4817E+01
  -5.732  0.1012E+01  0.4827E+01
  -5.722  0.1016E+01  0.4837E+01
  -5.712  0.1021E+01  0.4847E+01
  -5.702  0.1026E+01  0.4858E+01
  -5.692  0.1031E+01  0.4868E+01
  -5.682  0.1032E+01  0.4878E+01
  -5.672  0.1029E+01  0.4889E+01
  -5.662  0.1027E+01  0.4899E+01
  -5.652  0.1026E+01  0.4909E+01
  -5.642  0.1028E+01  0.4919E+01
  -5.632  0.1031E+01  0.4930E+01
  -5.622  0.1033E+01  0.4940E+01
  -5.612  0.1040E+01  0.4950E+01
  -5.602  0.1048E+01  0.4961E+01
  -5.592  0.1056E+01  0.4971E+01
  -5.582  0.1063E+01  0.4982E+01
  -5.572  0.1070E+01  0.4993E+01
  -5.562  0.1077E+01  0.5003E+01
  -5.552  0.1084E+01  0.5014E+01
  -5.542  0.1088E+01  0.5025E+01
  -5.532  0.1090E+01  0.5036E+01
  -5.522  0.1111E+01  0.5047E+01
  -5.512  0.1102E+01  0.5058E+01
  -5.502  0.1117E+01  0.5069E+01
  -5.492  0.1301E+01  0.5081E+01
  -5.482  0.1480E+01  0.5095E+01
  -5.472  0.1649E+01  0.5111E+01
  -5.462  0.1806E+01  0.5128E+01
  -5.452  0.1922E+01  0.5147E+01
  -5.442  0.1907E+01  0.5166E+01
  -5.432  0.1696E+01  0.5184E+01
  -5.422  0.1420E+01  0.5200E+01
  -5.412  0.1146E+01  0.5212E+01
  -5.402  0.1076E+01  0.5224E+01
  -5.392  0.1031E+01  0.5234E+01
  -5.382  0.9980E+00  0.5244E+01
  -5.372  0.9722E+00  0.5254E+01
  -5.362  0.9528E+00  0.5264E+01
  -5.352  0.9505E+00  0.5273E+01
  -5.342  0.9499E+00  0.5283E+01
  -5.332  0.9384E+00  0.5292E+01
  -5.322  0.9270E+00  0.5301E+01
  -5.312  0.9156E+00  0.5311E+01
  -5.302  0.9042E+00  0.5320E+01
  -5.292  0.8924E+00  0.5329E+01
  -5.282  0.8821E+00  0.5338E+01
  -5.272  0.8773E+00  0.5346E+01
  -5.262  0.8728E+00  0.5355E+01
  -5.252  0.8686E+00  0.5364E+01
  -5.242  0.8647E+00  0.5373E+01
  -5.232  0.8610E+00  0.5381E+01
  -5.222  0.8576E+00  0.5390E+01
  -5.212  0.8546E+00  0.5398E+01
  -5.202  0.8518E+00  0.5407E+01
  -5.192  0.8492E+00  0.5415E+01
  -5.182  0.8467E+00  0.5424E+01
  -5.172  0.8445E+00  0.5432E+01
  -5.162  0.8423E+00  0.5441E+01
  -5.152  0.8403E+00  0.5449E+01
  -5.142  0.8385E+00  0.5458E+01
  -5.132  0.8368E+00  0.5466E+01
  -5.122  0.8353E+00  0.5474E+01
  -5.112  0.8339E+00  0.5483E+01
  -5.102  0.8326E+00  0.5491E+01
  -5.092  0.8310E+00  0.5499E+01
  -5.082  0.8288E+00  0.5508E+01
  -5.072  0.8259E+00  0.5516E+01
  -5.062  0.8266E+00  0.5524E+01
  -5.052  0.8316E+00  0.5532E+01
  -5.042  0.8365E+00  0.5541E+01
  -5.032  0.8381E+00  0.5549E+01
  -5.022  0.8356E+00  0.5557E+01
  -5.012  0.8299E+00  0.5566E+01
  -5.002  0.8083E+00  0.5574E+01
  -4.992  0.7898E+00  0.5582E+01
  -4.982  0.8086E+00  0.5590E+01
  -4.972  0.8893E+00  0.5598E+01
  -4.962  0.1101E+01  0.5608E+01
  -4.952  0.1288E+01  0.5620E+01
  -4.942  0.1344E+01  0.5633E+01
  -4.932  0.1475E+01  0.5648E+01
  -4.922  0.1560E+01  0.5663E+01
  -4.912  0.1599E+01  0.5679E+01
  -4.902  0.1531E+01  0.5694E+01
  -4.892  0.1255E+01  0.5709E+01
  -4.882  0.8052E+00  0.5719E+01
  -4.872  0.4622E+00  0.5725E+01
  -4.862  0.3485E+00  0.5729E+01
  -4.852  0.2928E+00  0.5732E+01
  -4.842  0.2510E+00  0.5735E+01
  -4.832  0.2206E+00  0.5737E+01
  -4.822  0.2043E+00  0.5739E+01
  -4.812  0.1985E+00  0.5741E+01
  -4.802  0.1932E+00  0.5743E+01
  -4.792  0.1884E+00  0.5745E+01
  -4.782  0.1840E+00  0.5747E+01
  -4.772  0.1801E+00  0.5749E+01
  -4.762  0.1766E+00  0.5751E+01
  -4.752  0.1734E+00  0.5752E+01
  -4.742  0.1704E+00  0.5754E+01
  -4.732  0.1674E+00  0.5756E+01
  -4.722  0.1645E+00  0.5757E+01
  -4.712  0.1617E+00  0.5759E+01
  -4.702  0.1588E+00  0.5761E+01
  -4.692  0.1561E+00  0.5762E+01
  -4.682  0.1534E+00  0.5764E+01
  -4.672  0.1507E+00  0.5765E+01
  -4.662  0.1481E+00  0.5767E+01
  -4.652  0.1457E+00  0.5768E+01
  -4.642  0.1435E+00  0.5770E+01
  -4.632  0.1415E+00  0.5771E+01
  -4.622  0.1397E+00  0.5773E+01
  -4.612  0.1381E+00  0.5774E+01
  -4.602  0.1368E+00  0.5775E+01
  -4.592  0.1357E+00  0.5777E+01
  -4.582  0.1347E+00  0.5778E+01
  -4.572  0.1341E+00  0.5779E+01
  -4.562  0.1345E+00  0.5781E+01
  -4.552  0.1453E+00  0.5782E+01
  -4.542  0.1567E+00  0.5784E+01
  -4.532  0.1692E+00  0.5785E+01
  -4.522  0.1826E+00  0.5787E+01
  -4.512  0.1990E+00  0.5789E+01
  -4.502  0.2195E+00  0.5791E+01
  -4.492  0.3262E+00  0.5794E+01
  -4.482  0.4345E+00  0.5798E+01
  -4.472  0.5339E+00  0.5802E+01
  -4.462  0.6239E+00  0.5808E+01
  -4.452  0.7046E+00  0.5815E+01
  -4.442  0.7761E+00  0.5822E+01
  -4.432  0.8385E+00  0.5830E+01
  -4.422  0.8929E+00  0.5839E+01
  -4.412  0.9393E+00  0.5848E+01
  -4.402  0.9743E+00  0.5858E+01
  -4.392  0.9956E+00  0.5868E+01
  -4.382  0.1003E+01  0.5878E+01
  -4.372  0.9928E+00  0.5888E+01
  -4.362  0.9794E+00  0.5897E+01
  -4.352  0.1077E+01  0.5908E+01
  -4.342  0.1106E+01  0.5919E+01
  -4.332  0.1060E+01  0.5930E+01
  -4.322  0.1036E+01  0.5940E+01
  -4.312  0.1062E+01  0.5950E+01
  -4.302  0.1057E+01  0.5961E+01
  -4.292  0.1209E+01  0.5972E+01
  -4.282  0.1180E+01  0.5984E+01
  -4.272  0.1160E+01  0.5996E+01
  -4.262  0.1152E+01  0.6007E+01
  -4.252  0.1191E+01  0.6019E+01
  -4.242  0.1244E+01  0.6031E+01
  -4.232  0.1294E+01  0.6044E+01
  -4.222  0.1311E+01  0.6057E+01
  -4.212  0.1319E+01  0.6070E+01
  -4.202  0.1237E+01  0.6083E+01
  -4.192  0.9826E+00  0.6094E+01
  -4.182  0.9424E+00  0.6104E+01
  -4.172  0.9359E+00  0.6113E+01
  -4.162  0.8717E+00  0.6122E+01
  -4.152  0.8470E+00  0.6131E+01
  -4.142  0.8412E+00  0.6139E+01
  -4.132  0.8318E+00  0.6148E+01
  -4.122  0.8206E+00  0.6156E+01
  -4.112  0.8096E+00  0.6164E+01
  -4.102  0.7989E+00  0.6172E+01
  -4.092  0.7885E+00  0.6180E+01
  -4.082  0.7783E+00  0.6188E+01
  -4.072  0.7684E+00  0.6196E+01
  -4.062  0.7588E+00  0.6203E+01
  -4.052  0.7494E+00  0.6211E+01
  -4.042  0.7402E+00  0.6218E+01
  -4.032  0.7314E+00  0.6226E+01
  -4.022  0.7228E+00  0.6233E+01
  -4.012  0.7144E+00  0.6240E+01
  -4.002  0.7063E+00  0.6247E+01
  -3.992  0.6985E+00  0.6254E+01
  -3.982  0.6909E+00  0.6261E+01
  -3.972  0.6836E+00  0.6268E+01
  -3.962  0.6765E+00  0.6275E+01
  -3.952  0.6698E+00  0.6282E+01
  -3.942  0.6632E+00  0.6288E+01
  -3.932  0.6570E+00  0.6295E+01
  -3.922  0.6509E+00  0.6302E+01
  -3.912  0.6452E+00  0.6308E+01
  -3.902  0.6397E+00  0.6314E+01
  -3.892  0.6344E+00  0.6321E+01
  -3.882  0.6294E+00  0.6327E+01
  -3.872  0.6243E+00  0.6333E+01
  -3.862  0.6191E+00  0.6340E+01
  -3.852  0.6141E+00  0.6346E+01
  -3.842  0.6091E+00  0.6352E+01
  -3.832  0.6040E+00  0.6358E+01
  -3.822  0.5987E+00  0.6364E+01
  -3.812  0.5931E+00  0.6370E+01
  -3.802  0.5873E+00  0.6376E+01
  -3.792  0.5862E+00  0.6382E+01
  -3.782  0.5881E+00  0.6388E+01
  -3.772  0.5903E+00  0.6393E+01
  -3.762  0.5935E+00  0.6399E+01
  -3.752  0.5965E+00  0.6405E+01
  -3.742  0.5954E+00  0.6411E+01
  -3.732  0.5935E+00  0.6417E+01
  -3.722  0.5916E+00  0.6423E+01
  -3.712  0.5896E+00  0.6429E+01
  -3.702  0.5877E+00  0.6435E+01
  -3.692  0.5858E+00  0.6441E+01
  -3.682  0.5839E+00  0.6447E+01
  -3.672  0.5820E+00  0.6452E+01
  -3.662  0.5801E+00  0.6458E+01
  -3.652  0.5782E+00  0.6464E+01
  -3.642  0.5763E+00  0.6470E+01
  -3.632  0.5744E+00  0.6476E+01
  -3.622  0.5726E+00  0.6481E+01
  -3.612  0.5707E+00  0.6487E+01
  -3.602  0.5689E+00  0.6493E+01
  -3.592  0.5671E+00  0.6498E+01
  -3.582  0.5653E+00  0.6504E+01
  -3.572  0.5636E+00  0.6510E+01
  -3.562  0.5618E+00  0.6515E+01
  -3.552  0.5601E+00  0.6521E+01
  -3.542  0.5584E+00  0.6527E+01
  -3.532  0.5567E+00  0.6532E+01
  -3.522  0.5550E+00  0.6538E+01
  -3.512  0.5533E+00  0.6543E+01
  -3.502  0.5517E+00  0.6549E+01
  -3.492  0.5500E+00  0.6554E+01
  -3.482  0.5484E+00  0.6560E+01
  -3.472  0.5468E+00  0.6565E+01
  -3.462  0.5452E+00  0.6571E+01
  -3.452  0.5436E+00  0.6576E+01
  -3.442  0.5421E+00  0.6582E+01
  -3.432  0.5406E+00  0.6587E+01
  -3.422  0.5390E+00  0.6592E+01
  -3.412  0.5375E+00  0.6598E+01
  -3.402  0.5360E+00  0.6603E+01
  -3.392  0.5346E+00  0.6608E+01
  -3.382  0.5331E+00  0.6614E+01
  -3.372  0.5317E+00  0.6619E+01
  -3.362  0.5303E+00  0.6624E+01
  -3.352  0.5289E+00  0.6630E+01
  -3.342  0.5275E+00  0.6635E+01
  -3.332  0.5261E+00  0.6640E+01
  -3.322  0.5247E+00  0.6646E+01
  -3.312  0.5233E+00  0.6651E+01
  -3.302  0.5218E+00  0.6656E+01
  -3.292  0.5203E+00  0.6661E+01
  -3.282  0.5198E+00  0.6666E+01
  -3.272  0.5205E+00  0.6672E+01
  -3.262  0.5215E+00  0.6677E+01
  -3.252  0.5225E+00  0.6682E+01
  -3.242  0.5265E+00  0.6687E+01
  -3.232  0.5207E+00  0.6693E+01
  -3.222  0.4958E+00  0.6698E+01
  -3.212  0.5168E+00  0.6703E+01
  -3.202  0.5268E+00  0.6708E+01
  -3.192  0.5234E+00  0.6713E+01
  -3.182  0.5266E+00  0.6718E+01
  -3.172  0.5247E+00  0.6724E+01
  -3.162  0.5166E+00  0.6729E+01
  -3.152  0.5016E+00  0.6734E+01
  -3.142  0.5109E+00  0.6739E+01
  -3.132  0.5346E+00  0.6744E+01
  -3.122  0.5604E+00  0.6750E+01
  -3.112  0.5635E+00  0.6755E+01
  -3.102  0.5653E+00  0.6761E+01
  -3.092  0.5665E+00  0.6767E+01
  -3.082  0.5671E+00  0.6772E+01
  -3.072  0.5671E+00  0.6778E+01
  -3.062  0.5668E+00  0.6784E+01
  -3.052  0.5664E+00  0.6789E+01
  -3.042  0.5661E+00  0.6795E+01
  -3.032  0.5658E+00  0.6801E+01
  -3.022  0.5654E+00  0.6806E+01
  -3.012  0.5651E+00  0.6812E+01
  -3.002  0.5647E+00  0.6818E+01
  -2.992  0.5644E+00  0.6823E+01
  -2.982  0.5640E+00  0.6829E+01
  -2.972  0.5637E+00  0.6835E+01
  -2.962  0.5633E+00  0.6840E+01
  -2.952  0.5630E+00  0.6846E+01
  -2.942  0.5626E+00  0.6851E+01
  -2.932  0.5621E+00  0.6857E+01
  -2.922  0.5617E+00  0.6863E+01
  -2.912  0.5616E+00  0.6868E+01
  -2.902  0.5602E+00  0.6874E+01
  -2.892  0.5564E+00  0.6879E+01
  -2.882  0.5523E+00  0.6885E+01
  -2.872  0.5483E+00  0.6891E+01
  -2.862  0.5451E+00  0.6896E+01
  -2.852  0.5445E+00  0.6901E+01
  -2.842  0.5439E+00  0.6907E+01
  -2.832  0.5432E+00  0.6912E+01
  -2.822  0.5426E+00  0.6918E+01
  -2.812  0.5419E+00  0.6923E+01
  -2.802  0.5412E+00  0.6929E+01
  -2.792  0.5405E+00  0.6934E+01
  -2.782  0.5398E+00  0.6939E+01
  -2.772  0.5391E+00  0.6945E+01
  -2.762  0.5384E+00  0.6950E+01
  -2.752  0.5379E+00  0.6956E+01
  -2.742  0.5383E+00  0.6961E+01
  -2.732  0.5387E+00  0.6966E+01
  -2.722  0.5391E+00  0.6972E+01
  -2.712  0.5376E+00  0.6977E+01
  -2.702  0.5304E+00  0.6982E+01
  -2.692  0.5370E+00  0.6988E+01
  -2.682  0.5424E+00  0.6993E+01
  -2.672  0.5467E+00  0.6999E+01
  -2.662  0.5498E+00  0.7004E+01
  -2.652  0.5517E+00  0.7010E+01
  -2.642  0.5525E+00  0.7015E+01
  -2.632  0.5526E+00  0.7021E+01
  -2.622  0.5515E+00  0.7026E+01
  -2.612  0.5482E+00  0.7032E+01
  -2.602  0.5470E+00  0.7037E+01
  -2.592  0.5461E+00  0.7043E+01
  -2.582  0.5453E+00  0.7048E+01
  -2.572  0.5444E+00  0.7054E+01
  -2.562  0.5434E+00  0.7059E+01
  -2.552  0.5424E+00  0.7064E+01
  -2.542  0.5413E+00  0.7070E+01
  -2.532  0.5402E+00  0.7075E+01
  -2.522  0.5391E+00  0.7081E+01
  -2.512  0.5379E+00  0.7086E+01
  -2.502  0.5367E+00  0.7091E+01
  -2.492  0.5354E+00  0.7097E+01
  -2.482  0.5341E+00  0.7102E+01
  -2.472  0.5327E+00  0.7107E+01
  -2.462  0.5313E+00  0.7113E+01
  -2.452  0.5299E+00  0.7118E+01
  -2.442  0.5302E+00  0.7123E+01
  -2.432  0.5331E+00  0.7129E+01
  -2.422  0.5579E+00  0.7134E+01
  -2.412  0.5773E+00  0.7140E+01
  -2.402  0.5904E+00  0.7146E+01
  -2.392  0.5972E+00  0.7152E+01
  -2.382  0.5996E+00  0.7158E+01
  -2.372  0.6044E+00  0.7164E+01
  -2.362  0.6018E+00  0.7170E+01
  -2.352  0.5989E+00  0.7176E+01
  -2.342  0.5956E+00  0.7182E+01
  -2.332  0.5912E+00  0.7188E+01
  -2.322  0.5833E+00  0.7193E+01
  -2.312  0.5753E+00  0.7199E+01
  -2.302  0.5684E+00  0.7205E+01
  -2.292  0.5612E+00  0.7211E+01
  -2.282  0.5535E+00  0.7216E+01
  -2.272  0.5455E+00  0.7222E+01
  -2.262  0.5379E+00  0.7227E+01
  -2.252  0.5316E+00  0.7232E+01
  -2.242  0.5248E+00  0.7238E+01
  -2.232  0.5177E+00  0.7243E+01
  -2.222  0.5101E+00  0.7248E+01
  -2.212  0.5022E+00  0.7253E+01
  -2.202  0.4938E+00  0.7258E+01
  -2.192  0.4850E+00  0.7263E+01
  -2.182  0.4758E+00  0.7268E+01
  -2.172  0.4661E+00  0.7272E+01
  -2.162  0.4561E+00  0.7277E+01
  -2.152  0.4457E+00  0.7282E+01
  -2.142  0.4349E+00  0.7286E+01
  -2.132  0.4238E+00  0.7290E+01
  -2.122  0.4123E+00  0.7294E+01
  -2.112  0.4004E+00  0.7299E+01
  -2.102  0.3882E+00  0.7302E+01
  -2.092  0.3779E+00  0.7306E+01
  -2.082  0.3754E+00  0.7310E+01
  -2.072  0.3733E+00  0.7314E+01
  -2.062  0.3714E+00  0.7318E+01
  -2.052  0.3699E+00  0.7321E+01
  -2.042  0.3687E+00  0.7325E+01
  -2.032  0.3698E+00  0.7329E+01
  -2.022  0.3712E+00  0.7332E+01
  -2.012  0.3728E+00  0.7336E+01
  -2.002  0.3744E+00  0.7340E+01
  -1.992  0.3760E+00  0.7344E+01
  -1.982  0.3777E+00  0.7347E+01
  -1.972  0.3795E+00  0.7351E+01
  -1.962  0.3814E+00  0.7355E+01
  -1.952  0.3833E+00  0.7359E+01
  -1.942  0.3853E+00  0.7363E+01
  -1.932  0.3873E+00  0.7366E+01
  -1.922  0.3893E+00  0.7370E+01
  -1.912  0.3914E+00  0.7374E+01
  -1.902  0.3935E+00  0.7378E+01
  -1.892  0.3956E+00  0.7382E+01
  -1.882  0.3977E+00  0.7386E+01
  -1.872  0.3997E+00  0.7390E+01
  -1.862  0.4012E+00  0.7394E+01
  -1.852  0.3958E+00  0.7398E+01
  -1.842  0.3849E+00  0.7402E+01
  -1.832  0.3746E+00  0.7406E+01
  -1.822  0.3664E+00  0.7409E+01
  -1.812  0.3879E+00  0.7413E+01
  -1.802  0.4103E+00  0.7417E+01
  -1.792  0.4218E+00  0.7421E+01
  -1.782  0.4402E+00  0.7426E+01
  -1.772  0.4332E+00  0.7430E+01
  -1.762  0.4199E+00  0.7434E+01
  -1.752  0.4072E+00  0.7438E+01
  -1.742  0.3983E+00  0.7442E+01
  -1.732  0.3949E+00  0.7446E+01
  -1.722  0.3915E+00  0.7450E+01
  -1.712  0.3890E+00  0.7454E+01
  -1.702  0.3981E+00  0.7458E+01
  -1.692  0.4084E+00  0.7462E+01
  -1.682  0.4176E+00  0.7466E+01
  -1.672  0.4269E+00  0.7471E+01
  -1.662  0.4362E+00  0.7475E+01
  -1.652  0.4456E+00  0.7479E+01
  -1.642  0.4552E+00  0.7484E+01
  -1.632  0.4648E+00  0.7488E+01
  -1.622  0.4745E+00  0.7493E+01
  -1.612  0.4843E+00  0.7498E+01
  -1.602  0.4949E+00  0.7503E+01
  -1.592  0.5067E+00  0.7508E+01
  -1.582  0.5201E+00  0.7513E+01
  -1.572  0.5121E+00  0.7518E+01
  -1.562  0.4969E+00  0.7523E+01
  -1.552  0.4816E+00  0.7528E+01
  -1.542  0.4659E+00  0.7533E+01
  -1.532  0.4500E+00  0.7537E+01
  -1.522  0.4340E+00  0.7542E+01
  -1.512  0.4231E+00  0.7546E+01
  -1.502  0.4139E+00  0.7550E+01
  -1.492  0.7012E+00  0.7555E+01
  -1.482  0.1033E+01  0.7564E+01
  -1.472  0.1005E+01  0.7575E+01
  -1.462  0.5210E+01  0.7595E+01
  -1.452  0.7732E+00  0.7606E+01
  -1.442  0.6793E+00  0.7614E+01
  -1.432  0.5989E+00  0.7620E+01
  -1.422  0.5320E+00  0.7626E+01
  -1.412  0.4787E+00  0.7631E+01
  -1.402  0.4389E+00  0.7635E+01
  -1.392  0.4126E+00  0.7640E+01
  -1.382  0.4017E+00  0.7644E+01
  -1.372  0.3973E+00  0.7648E+01
  -1.362  0.3932E+00  0.7652E+01
  -1.352  0.3896E+00  0.7655E+01
  -1.342  0.3861E+00  0.7659E+01
  -1.332  0.3827E+00  0.7663E+01
  -1.322  0.3793E+00  0.7667E+01
  -1.312  0.3759E+00  0.7671E+01
  -1.302  0.3726E+00  0.7674E+01
  -1.292  0.3694E+00  0.7678E+01
  -1.282  0.3661E+00  0.7682E+01
  -1.272  0.3629E+00  0.7686E+01
  -1.262  0.3597E+00  0.7689E+01
  -1.252  0.3564E+00  0.7693E+01
  -1.242  0.3532E+00  0.7696E+01
  -1.232  0.3499E+00  0.7700E+01
  -1.222  0.3466E+00  0.7703E+01
  -1.212  0.3434E+00  0.7707E+01
  -1.202  0.3401E+00  0.7710E+01
  -1.192  0.3368E+00  0.7714E+01
  -1.182  0.3335E+00  0.7717E+01
  -1.172  0.3302E+00  0.7720E+01
  -1.162  0.3269E+00  0.7723E+01
  -1.152  0.3236E+00  0.7727E+01
  -1.142  0.3203E+00  0.7730E+01
  -1.132  0.3169E+00  0.7733E+01
  -1.122  0.3136E+00  0.7736E+01
  -1.112  0.3103E+00  0.7739E+01
  -1.102  0.3069E+00  0.7742E+01
  -1.092  0.3036E+00  0.7746E+01
  -1.082  0.3002E+00  0.7749E+01
  -1.072  0.2968E+00  0.7752E+01
  -1.062  0.2935E+00  0.7754E+01
  -1.052  0.2901E+00  0.7757E+01
  -1.042  0.2867E+00  0.7760E+01
  -1.032  0.2833E+00  0.7763E+01
  -1.022  0.2799E+00  0.7766E+01
  -1.012  0.2765E+00  0.7769E+01
  -1.002  0.2731E+00  0.7771E+01
  -0.992  0.2697E+00  0.7774E+01
  -0.982  0.2662E+00  0.7777E+01
  -0.972  0.2628E+00  0.7780E+01
  -0.962  0.2594E+00  0.7782E+01
  -0.952  0.2559E+00  0.7785E+01
  -0.942  0.2525E+00  0.7787E+01
  -0.932  0.2490E+00  0.7790E+01
  -0.922  0.2455E+00  0.7792E+01
  -0.912  0.2421E+00  0.7795E+01
  -0.902  0.2386E+00  0.7797E+01
  -0.892  0.2351E+00  0.7799E+01
  -0.882  0.2316E+00  0.7802E+01
  -0.872  0.2281E+00  0.7804E+01
  -0.862  0.2246E+00  0.7806E+01
  -0.852  0.2231E+00  0.7809E+01
  -0.842  0.2237E+00  0.7811E+01
  -0.832  0.2253E+00  0.7813E+01
  -0.822  0.2269E+00  0.7815E+01
  -0.812  0.2286E+00  0.7818E+01
  -0.802  0.2302E+00  0.7820E+01
  -0.792  0.2318E+00  0.7822E+01
  -0.782  0.2339E+00  0.7825E+01
  -0.772  0.2364E+00  0.7827E+01
  -0.762  0.2350E+00  0.7829E+01
  -0.752  0.2335E+00  0.7832E+01
  -0.742  0.2322E+00  0.7834E+01
  -0.732  0.2311E+00  0.7836E+01
  -0.722  0.2301E+00  0.7839E+01
  -0.712  0.2291E+00  0.7841E+01
  -0.702  0.2280E+00  0.7843E+01
  -0.692  0.2268E+00  0.7845E+01
  -0.682  0.2256E+00  0.7848E+01
  -0.672  0.2242E+00  0.7850E+01
  -0.662  0.2229E+00  0.7852E+01
  -0.652  0.2215E+00  0.7854E+01
  -0.642  0.2200E+00  0.7857E+01
  -0.632  0.2186E+00  0.7859E+01
  -0.622  0.2172E+00  0.7861E+01
  -0.612  0.2157E+00  0.7863E+01
  -0.602  0.2142E+00  0.7865E+01
  -0.592  0.2127E+00  0.7867E+01
  -0.582  0.2112E+00  0.7870E+01
  -0.572  0.2096E+00  0.7872E+01
  -0.562  0.2081E+00  0.7874E+01
  -0.552  0.2065E+00  0.7876E+01
  -0.542  0.2049E+00  0.7878E+01
  -0.532  0.2033E+00  0.7880E+01
  -0.522  0.2017E+00  0.7882E+01
  -0.512  0.2000E+00  0.7884E+01
  -0.502  0.1984E+00  0.7886E+01
  -0.492  0.1967E+00  0.7888E+01
  -0.482  0.1950E+00  0.7890E+01
  -0.472  0.1932E+00  0.7892E+01
  -0.462  0.1914E+00  0.7894E+01
  -0.452  0.1915E+00  0.7896E+01
  -0.442  0.1946E+00  0.7898E+01
  -0.432  0.1978E+00  0.7899E+01
  -0.422  0.2010E+00  0.7901E+01
  -0.412  0.2043E+00  0.7904E+01
  -0.402  0.2038E+00  0.7906E+01
  -0.392  0.1897E+00  0.7908E+01
  -0.382  0.1848E+00  0.7909E+01
  -0.372  0.1948E+00  0.7911E+01
  -0.362  0.1867E+00  0.7913E+01
  -0.352  0.1670E+00  0.7915E+01
  -0.342  0.1500E+00  0.7917E+01
  -0.332  0.1359E+00  0.7918E+01
  -0.322  0.1233E+00  0.7919E+01
  -0.312  0.1129E+00  0.7920E+01
  -0.302  0.1062E+00  0.7922E+01
  -0.292  0.1010E+00  0.7923E+01
  -0.282  0.9769E-01  0.7924E+01
  -0.272  0.9604E-01  0.7925E+01
  -0.262  0.9593E-01  0.7925E+01
  -0.252  0.9681E-01  0.7926E+01
  -0.242  0.9698E-01  0.7927E+01
  -0.232  0.9665E-01  0.7928E+01
  -0.222  0.9621E-01  0.7929E+01
  -0.212  0.9577E-01  0.7930E+01
  -0.202  0.9532E-01  0.7931E+01
  -0.192  0.9487E-01  0.7932E+01
  -0.182  0.9441E-01  0.7933E+01
  -0.172  0.9395E-01  0.7934E+01
  -0.162  0.9348E-01  0.7935E+01
  -0.152  0.9301E-01  0.7936E+01
  -0.142  0.9254E-01  0.7937E+01
  -0.132  0.9206E-01  0.7938E+01
  -0.122  0.9157E-01  0.7939E+01
  -0.112  0.9108E-01  0.7940E+01
  -0.102  0.9059E-01  0.7941E+01
  -0.092  0.9009E-01  0.7941E+01
  -0.082  0.8958E-01  0.7942E+01
  -0.072  0.8908E-01  0.7943E+01
  -0.062  0.8856E-01  0.7944E+01
  -0.052  0.8804E-01  0.7945E+01
  -0.042  0.8752E-01  0.7946E+01
  -0.032  0.8699E-01  0.7947E+01
  -0.022  0.8646E-01  0.7948E+01
  -0.012  0.8593E-01  0.7949E+01
  -0.002  0.8538E-01  0.7949E+01
   0.008  0.8484E-01  0.7950E+01
   0.018  0.8429E-01  0.7951E+01
   0.028  0.8373E-01  0.7952E+01
   0.038  0.8317E-01  0.7953E+01
   0.048  0.8260E-01  0.7954E+01
   0.058  0.8203E-01  0.7954E+01
   0.068  0.8146E-01  0.7955E+01
   0.078  0.8088E-01  0.7956E+01
   0.088  0.8030E-01  0.7957E+01
   0.098  0.7971E-01  0.7958E+01
   0.108  0.7911E-01  0.7958E+01
   0.118  0.7852E-01  0.7959E+01
   0.128  0.7791E-01  0.7960E+01
   0.138  0.7731E-01  0.7961E+01
   0.148  0.7669E-01  0.7962E+01
   0.158  0.7608E-01  0.7962E+01
   0.168  0.7545E-01  0.7963E+01
   0.178  0.7483E-01  0.7964E+01
   0.188  0.7420E-01  0.7965E+01
   0.198  0.7356E-01  0.7965E+01
   0.208  0.7292E-01  0.7966E+01
   0.218  0.7227E-01  0.7967E+01
   0.228  0.7162E-01  0.7967E+01
   0.238  0.7097E-01  0.7968E+01
   0.248  0.7031E-01  0.7969E+01
   0.258  0.6965E-01  0.7970E+01
   0.268  0.6898E-01  0.7970E+01
   0.278  0.6830E-01  0.7971E+01
   0.288  0.6762E-01  0.7972E+01
   0.298  0.6694E-01  0.7972E+01
   0.308  0.6625E-01  0.7973E+01
   0.318  0.6556E-01  0.7974E+01
   0.328  0.6486E-01  0.7974E+01
   0.338  0.6416E-01  0.7975E+01
   0.348  0.6346E-01  0.7976E+01
   0.358  0.6274E-01  0.7976E+01
   0.368  0.6203E-01  0.7977E+01
   0.378  0.6131E-01  0.7977E+01
   0.388  0.6058E-01  0.7978E+01
   0.398  0.5985E-01  0.7979E+01
   0.408  0.5912E-01  0.7979E+01
   0.418  0.5838E-01  0.7980E+01
   0.428  0.5763E-01  0.7980E+01
   0.438  0.5688E-01  0.7981E+01
   0.448  0.5613E-01  0.7982E+01
   0.458  0.5537E-01  0.7982E+01
   0.468  0.5461E-01  0.7983E+01
   0.478  0.5384E-01  0.7983E+01
   0.488  0.5307E-01  0.7984E+01
   0.498  0.5229E-01  0.7984E+01
   0.508  0.5151E-01  0.7985E+01
   0.518  0.5072E-01  0.7985E+01
   0.528  0.4993E-01  0.7986E+01
   0.538  0.4913E-01  0.7986E+01
   0.548  0.4833E-01  0.7987E+01
   0.558  0.4753E-01  0.7987E+01
   0.568  0.4672E-01  0.7988E+01
   0.578  0.4590E-01  0.7988E+01
   0.588  0.4508E-01  0.7989E+01
   0.598  0.4426E-01  0.7989E+01
   0.608  0.4343E-01  0.7990E+01
   0.618  0.4259E-01  0.7990E+01
   0.628  0.4176E-01  0.7990E+01
   0.638  0.4092E-01  0.7991E+01
   0.648  0.4008E-01  0.7991E+01
   0.658  0.3923E-01  0.7992E+01
   0.668  0.3839E-01  0.7992E+01
   0.678  0.3755E-01  0.7992E+01
   0.688  0.3671E-01  0.7993E+01
   0.698  0.3587E-01  0.7993E+01
   0.708  0.3504E-01  0.7993E+01
   0.718  0.3421E-01  0.7994E+01
   0.728  0.3339E-01  0.7994E+01
   0.738  0.3257E-01  0.7994E+01
   0.748  0.3177E-01  0.7995E+01
   0.758  0.3144E-01  0.7995E+01
   0.768  0.3111E-01  0.7995E+01
   0.778  0.3100E-01  0.7996E+01
   0.788  0.3121E-01  0.7996E+01
   0.798  0.3142E-01  0.7996E+01
   0.808  0.3161E-01  0.7997E+01
   0.818  0.3179E-01  0.7997E+01
   0.828  0.3196E-01  0.7997E+01
   0.838  0.3212E-01  0.7998E+01
   0.848  0.3228E-01  0.7998E+01
   0.858  0.3242E-01  0.7998E+01
   0.868  0.3255E-01  0.7999E+01
   0.878  0.3267E-01  0.7999E+01
   0.888  0.3278E-01  0.7999E+01
   0.898  0.3289E-01  0.8000E+01
   0.908  0.3298E-01  0.8000E+01
   0.918  0.3306E-01  0.8000E+01
   0.928  0.3313E-01  0.8001E+01
   0.938  0.3320E-01  0.8001E+01
   0.948  0.3325E-01  0.8001E+01
   0.958  0.3329E-01  0.8002E+01
   0.968  0.3332E-01  0.8002E+01
   0.978  0.3335E-01  0.8002E+01
   0.988  0.3336E-01  0.8003E+01
   0.998  0.3336E-01  0.8003E+01
   1.008  0.3335E-01  0.8003E+01
   1.018  0.3334E-01  0.8004E+01
   1.028  0.3331E-01  0.8004E+01
   1.038  0.3327E-01  0.8004E+01
   1.048  0.3322E-01  0.8005E+01
   1.058  0.3328E-01  0.8005E+01
   1.068  0.3372E-01  0.8005E+01
   1.078  0.3431E-01  0.8006E+01
   1.088  0.3520E-01  0.8006E+01
   1.098  0.3609E-01  0.8006E+01
   1.108  0.3698E-01  0.8007E+01
   1.118  0.3788E-01  0.8007E+01
   1.128  0.3878E-01  0.8007E+01
   1.138  0.3969E-01  0.8008E+01
   1.148  0.4060E-01  0.8008E+01
   1.158  0.4151E-01  0.8009E+01
   1.168  0.4242E-01  0.8009E+01
   1.178  0.4334E-01  0.8009E+01
   1.188  0.4425E-01  0.8010E+01
   1.198  0.4515E-01  0.8010E+01
   1.208  0.4606E-01  0.8011E+01
   1.218  0.4696E-01  0.8011E+01
   1.228  0.4785E-01  0.8012E+01
   1.238  0.4874E-01  0.8012E+01
   1.248  0.4963E-01  0.8013E+01
   1.258  0.5051E-01  0.8013E+01
   1.268  0.5138E-01  0.8014E+01
   1.278  0.5225E-01  0.8014E+01
   1.288  0.5311E-01  0.8015E+01
   1.298  0.5397E-01  0.8015E+01
   1.308  0.5482E-01  0.8016E+01
   1.318  0.5567E-01  0.8016E+01
   1.328  0.5651E-01  0.8017E+01
   1.338  0.5735E-01  0.8018E+01
   1.348  0.5818E-01  0.8018E+01
   1.358  0.5901E-01  0.8019E+01
   1.368  0.5983E-01  0.8019E+01
   1.378  0.6064E-01  0.8020E+01
   1.388  0.6145E-01  0.8021E+01
   1.398  0.6226E-01  0.8021E+01
   1.408  0.6306E-01  0.8022E+01
   1.418  0.6385E-01  0.8022E+01
   1.428  0.6464E-01  0.8023E+01
   1.438  0.6543E-01  0.8024E+01
   1.448  0.6620E-01  0.8024E+01
   1.458  0.6698E-01  0.8025E+01
   1.468  0.6775E-01  0.8026E+01
   1.478  0.6851E-01  0.8026E+01
   1.488  0.6927E-01  0.8027E+01
   1.498  0.7002E-01  0.8028E+01
   1.508  0.7077E-01  0.8028E+01
   1.518  0.7151E-01  0.8029E+01
   1.528  0.7225E-01  0.8030E+01
   1.538  0.7298E-01  0.8031E+01
   1.548  0.7370E-01  0.8031E+01
   1.558  0.7443E-01  0.8032E+01
   1.568  0.7514E-01  0.8033E+01
   1.578  0.7585E-01  0.8034E+01
   1.588  0.7656E-01  0.8034E+01
   1.598  0.7726E-01  0.8035E+01
   1.608  0.7795E-01  0.8036E+01
   1.618  0.7864E-01  0.8037E+01
   1.628  0.7933E-01  0.8037E+01
   1.638  0.8001E-01  0.8038E+01
   1.648  0.8068E-01  0.8039E+01
   1.658  0.8135E-01  0.8040E+01
   1.668  0.8201E-01  0.8041E+01
   1.678  0.8267E-01  0.8042E+01
   1.688  0.8332E-01  0.8042E+01
   1.698  0.8397E-01  0.8043E+01
   1.708  0.8461E-01  0.8044E+01
   1.718  0.8525E-01  0.8045E+01
   1.728  0.8588E-01  0.8046E+01
   1.738  0.8651E-01  0.8047E+01
   1.748  0.8713E-01  0.8047E+01
   1.758  0.8774E-01  0.8048E+01
   1.768  0.8835E-01  0.8049E+01
   1.778  0.8896E-01  0.8050E+01
   1.788  0.8956E-01  0.8051E+01
   1.798  0.9015E-01  0.8052E+01
   1.808  0.9074E-01  0.8053E+01
   1.818  0.9133E-01  0.8054E+01
   1.828  0.9191E-01  0.8055E+01
   1.838  0.9248E-01  0.8056E+01
   1.848  0.9305E-01  0.8056E+01
   1.858  0.9361E-01  0.8057E+01
   1.868  0.9417E-01  0.8058E+01
   1.878  0.9472E-01  0.8059E+01
   1.888  0.9527E-01  0.8060E+01
   1.898  0.9581E-01  0.8061E+01
   1.908  0.9635E-01  0.8062E+01
   1.918  0.9688E-01  0.8063E+01
   1.928  0.9741E-01  0.8064E+01
   1.938  0.9793E-01  0.8065E+01
   1.948  0.9845E-01  0.8066E+01
   1.958  0.9896E-01  0.8067E+01
   1.968  0.9946E-01  0.8068E+01
   1.978  0.9996E-01  0.8069E+01
   1.988  0.1003E+00  0.8070E+01
   1.998  0.1000E+00  0.8071E+01
   2.008  0.9946E-01  0.8072E+01
   2.018  0.1006E+00  0.8073E+01
   2.028  0.1039E+00  0.8074E+01
   2.038  0.1094E+00  0.8075E+01
   2.048  0.1171E+00  0.8076E+01
   2.058  0.1271E+00  0.8077E+01
   2.068  0.1393E+00  0.8079E+01
   2.078  0.1539E+00  0.8080E+01
   2.088  0.1805E+00  0.8082E+01
   2.098  0.2091E+00  0.8084E+01
   2.108  0.2400E+00  0.8086E+01
   2.118  0.2771E+00  0.8089E+01
   2.128  0.3087E+00  0.8092E+01
   2.138  0.3142E+00  0.8095E+01
   2.148  0.3027E+00  0.8098E+01
   2.158  0.2827E+00  0.8101E+01
   2.168  0.2608E+00  0.8104E+01
   2.178  0.2739E+00  0.8106E+01
   2.188  0.2633E+00  0.8109E+01
   2.198  0.2521E+00  0.8111E+01
   2.208  0.2412E+00  0.8114E+01
   2.218  0.2305E+00  0.8116E+01
   2.228  0.2720E+00  0.8119E+01
   2.238  0.2839E+00  0.8121E+01
   2.248  0.2862E+00  0.8124E+01
   2.258  0.3018E+00  0.8127E+01
   2.268  0.3253E+00  0.8130E+01
   2.278  0.3206E+00  0.8134E+01
   2.288  0.3108E+00  0.8137E+01
   2.298  0.3011E+00  0.8140E+01
   2.308  0.2914E+00  0.8143E+01
   2.318  0.2818E+00  0.8146E+01
   2.328  0.2722E+00  0.8148E+01
   2.338  0.2627E+00  0.8151E+01
   2.348  0.2532E+00  0.8154E+01
   2.358  0.2438E+00  0.8156E+01
   2.368  0.2451E+00  0.8159E+01
   2.378  0.2533E+00  0.8161E+01
   2.388  0.2616E+00  0.8164E+01
   2.398  0.2699E+00  0.8166E+01
   2.408  0.2782E+00  0.8169E+01
   2.418  0.2864E+00  0.8172E+01
   2.428  0.2947E+00  0.8175E+01
   2.438  0.3029E+00  0.8178E+01
   2.448  0.3113E+00  0.8181E+01
   2.458  0.3197E+00  0.8184E+01
   2.468  0.3282E+00  0.8187E+01
   2.478  0.3368E+00  0.8191E+01
   2.488  0.3467E+00  0.8194E+01
   2.498  0.3598E+00  0.8198E+01
   2.508  0.3727E+00  0.8201E+01
   2.518  0.3856E+00  0.8205E+01
   2.528  0.3984E+00  0.8209E+01
   2.538  0.4111E+00  0.8213E+01
   2.548  0.4237E+00  0.8217E+01
   2.558  0.4362E+00  0.8221E+01
   2.568  0.4487E+00  0.8226E+01
   2.578  0.4751E+00  0.8230E+01
   2.588  0.5433E+00  0.8236E+01
   2.598  0.6113E+00  0.8241E+01
   2.608  0.6789E+00  0.8248E+01
   2.618  0.7464E+00  0.8255E+01
   2.628  0.8101E+00  0.8263E+01
   2.638  0.8580E+00  0.8271E+01
   2.648  0.8890E+00  0.8280E+01
   2.658  0.9031E+00  0.8289E+01
   2.668  0.9003E+00  0.8298E+01
   2.678  0.8807E+00  0.8307E+01
   2.688  0.8441E+00  0.8315E+01
   2.698  0.7906E+00  0.8324E+01
   2.708  0.7255E+00  0.8331E+01
   2.718  0.6944E+00  0.8338E+01
   2.728  0.6580E+00  0.8345E+01
   2.738  0.6126E+00  0.8351E+01
   2.748  0.5581E+00  0.8357E+01
   2.758  0.4945E+00  0.8362E+01
   2.768  0.4258E+00  0.8367E+01
   2.778  0.4111E+00  0.8371E+01
   2.788  0.4150E+00  0.8375E+01
   2.798  0.4190E+00  0.8379E+01
   2.808  0.4241E+00  0.8384E+01
   2.818  0.4303E+00  0.8388E+01
   2.828  0.4364E+00  0.8392E+01
   2.838  0.4424E+00  0.8397E+01
   2.848  0.4483E+00  0.8401E+01
   2.858  0.4542E+00  0.8406E+01
   2.868  0.4586E+00  0.8410E+01
   2.878  0.4572E+00  0.8415E+01
   2.888  0.4526E+00  0.8419E+01
   2.898  0.4481E+00  0.8424E+01
   2.908  0.4437E+00  0.8428E+01
   2.918  0.4393E+00  0.8433E+01
   2.928  0.4350E+00  0.8437E+01
   2.938  0.4307E+00  0.8441E+01
   2.948  0.4265E+00  0.8446E+01
   2.958  0.4223E+00  0.8450E+01
   2.968  0.4182E+00  0.8454E+01
   2.978  0.4141E+00  0.8458E+01
   2.988  0.4101E+00  0.8462E+01
   2.998  0.4061E+00  0.8467E+01
   3.008  0.4022E+00  0.8471E+01
   3.018  0.3984E+00  0.8475E+01
   3.028  0.3945E+00  0.8479E+01
   3.038  0.3908E+00  0.8482E+01
   3.048  0.3870E+00  0.8486E+01
   3.058  0.3834E+00  0.8490E+01
   3.068  0.3798E+00  0.8494E+01
   3.078  0.3762E+00  0.8498E+01
   3.088  0.3727E+00  0.8502E+01
   3.098  0.3692E+00  0.8505E+01
   3.108  0.3658E+00  0.8509E+01
   3.118  0.3624E+00  0.8513E+01
   3.128  0.3591E+00  0.8516E+01
   3.138  0.3558E+00  0.8520E+01
   3.148  0.3526E+00  0.8523E+01
   3.158  0.3494E+00  0.8527E+01
   3.168  0.3463E+00  0.8530E+01
   3.178  0.3433E+00  0.8534E+01
   3.188  0.3402E+00  0.8537E+01
   3.198  0.3373E+00  0.8541E+01
   3.208  0.3343E+00  0.8544E+01
   3.218  0.3315E+00  0.8547E+01
   3.228  0.3287E+00  0.8551E+01
   3.238  0.3259E+00  0.8554E+01
   3.248  0.3232E+00  0.8557E+01
   3.258  0.3205E+00  0.8560E+01
   3.268  0.3179E+00  0.8563E+01
   3.278  0.3152E+00  0.8567E+01
   3.288  0.3125E+00  0.8570E+01
   3.298  0.3098E+00  0.8573E+01
   3.308  0.3071E+00  0.8576E+01
   3.318  0.3044E+00  0.8579E+01
   3.328  0.3017E+00  0.8582E+01
   3.338  0.2989E+00  0.8585E+01
   3.348  0.2962E+00  0.8588E+01
   3.358  0.2934E+00  0.8591E+01
   3.368  0.2906E+00  0.8594E+01
   3.378  0.2877E+00  0.8597E+01
   3.388  0.2880E+00  0.8600E+01
   3.398  0.2890E+00  0.8603E+01
   3.408  0.2900E+00  0.8605E+01
   3.418  0.2910E+00  0.8608E+01
   3.428  0.2926E+00  0.8611E+01
   3.438  0.2943E+00  0.8614E+01
   3.448  0.2966E+00  0.8617E+01
   3.458  0.3007E+00  0.8620E+01
   3.468  0.3027E+00  0.8623E+01
   3.478  0.3022E+00  0.8626E+01
   3.488  0.2994E+00  0.8629E+01
   3.498  0.2968E+00  0.8632E+01
   3.508  0.2944E+00  0.8635E+01
   3.518  0.2922E+00  0.8638E+01
   3.528  0.2901E+00  0.8641E+01
   3.538  0.2879E+00  0.8644E+01
   3.548  0.2857E+00  0.8647E+01
   3.558  0.2835E+00  0.8650E+01
   3.568  0.2812E+00  0.8652E+01
   3.578  0.2789E+00  0.8655E+01
   3.588  0.2766E+00  0.8658E+01
   3.598  0.2742E+00  0.8661E+01
   3.608  0.2717E+00  0.8663E+01
   3.618  0.2692E+00  0.8666E+01
   3.628  0.2683E+00  0.8669E+01
   3.638  0.2675E+00  0.8672E+01
   3.648  0.2666E+00  0.8674E+01
   3.658  0.2657E+00  0.8677E+01
   3.668  0.2647E+00  0.8680E+01
   3.678  0.2640E+00  0.8682E+01
   3.688  0.2645E+00  0.8685E+01
   3.698  0.2661E+00  0.8687E+01
   3.708  0.2680E+00  0.8690E+01
   3.718  0.2925E+00  0.8693E+01
   3.728  0.3169E+00  0.8696E+01
   3.738  0.3437E+00  0.8699E+01
   3.748  0.3698E+00  0.8703E+01
   3.758  0.3944E+00  0.8707E+01
   3.768  0.4160E+00  0.8711E+01
   3.778  0.4340E+00  0.8715E+01
   3.788  0.4504E+00  0.8719E+01
   3.798  0.4653E+00  0.8724E+01
   3.808  0.4786E+00  0.8729E+01
   3.818  0.4905E+00  0.8734E+01
   3.828  0.5008E+00  0.8739E+01
   3.838  0.5097E+00  0.8744E+01
   3.848  0.5171E+00  0.8749E+01
   3.858  0.5230E+00  0.8754E+01
   3.868  0.5275E+00  0.8759E+01
   3.878  0.5305E+00  0.8764E+01
   3.888  0.5320E+00  0.8770E+01
   3.898  0.5396E+00  0.8775E+01
   3.908  0.5458E+00  0.8781E+01
   3.918  0.5263E+00  0.8786E+01
   3.928  0.4811E+00  0.8791E+01
   3.938  0.4556E+00  0.8796E+01
   3.948  0.4559E+00  0.8800E+01
   3.958  0.4562E+00  0.8805E+01
   3.968  0.4565E+00  0.8809E+01
   3.978  0.4569E+00  0.8814E+01
   3.988  0.4572E+00  0.8818E+01
   3.998  0.4575E+00  0.8823E+01
   4.008  0.4578E+00  0.8828E+01
   4.018  0.4582E+00  0.8832E+01
   4.028  0.4585E+00  0.8837E+01
   4.038  0.4588E+00  0.8841E+01
   4.048  0.4592E+00  0.8846E+01
   4.058  0.4595E+00  0.8850E+01
   4.068  0.4598E+00  0.8855E+01
   4.078  0.4602E+00  0.8860E+01
   4.088  0.4605E+00  0.8864E+01
   4.098  0.4609E+00  0.8869E+01
   4.108  0.4612E+00  0.8874E+01
   4.118  0.4615E+00  0.8878E+01
   4.128  0.4619E+00  0.8883E+01
   4.138  0.4623E+00  0.8887E+01
   4.148  0.4626E+00  0.8892E+01
   4.158  0.4630E+00  0.8897E+01
   4.168  0.4633E+00  0.8901E+01
   4.178  0.4637E+00  0.8906E+01
   4.188  0.4641E+00  0.8911E+01
   4.198  0.4644E+00  0.8915E+01
   4.208  0.4648E+00  0.8920E+01
   4.218  0.4652E+00  0.8924E+01
   4.228  0.4655E+00  0.8929E+01
   4.238  0.4659E+00  0.8934E+01
   4.248  0.4663E+00  0.8938E+01
   4.258  0.4667E+00  0.8943E+01
   4.268  0.4671E+00  0.8948E+01
   4.278  0.4674E+00  0.8952E+01
   4.288  0.4678E+00  0.8957E+01
   4.298  0.4682E+00  0.8962E+01
   4.308  0.4686E+00  0.8966E+01
   4.318  0.4690E+00  0.8971E+01
   4.328  0.4694E+00  0.8976E+01
   4.338  0.4698E+00  0.8981E+01
   4.348  0.4702E+00  0.8985E+01
   4.358  0.4707E+00  0.8990E+01
   4.368  0.4712E+00  0.8995E+01
   4.378  0.4717E+00  0.8999E+01
   4.388  0.4696E+00  0.9004E+01
   4.398  0.4670E+00  0.9009E+01
   4.408  0.4645E+00  0.9013E+01
   4.418  0.4621E+00  0.9018E+01
   4.428  0.4599E+00  0.9023E+01
   4.438  0.4577E+00  0.9027E+01
   4.448  0.4557E+00  0.9032E+01
   4.458  0.4537E+00  0.9036E+01
   4.468  0.4519E+00  0.9041E+01
   4.478  0.4501E+00  0.9045E+01
   4.488  0.4485E+00  0.9050E+01
   4.498  0.4470E+00  0.9054E+01
   4.508  0.4456E+00  0.9059E+01
   4.518  0.4442E+00  0.9063E+01
   4.528  0.4430E+00  0.9068E+01
   4.538  0.4419E+00  0.9072E+01
   4.548  0.4409E+00  0.9077E+01
   4.558  0.4400E+00  0.9081E+01
   4.568  0.4391E+00  0.9085E+01
   4.578  0.4382E+00  0.9090E+01
   4.588  0.4370E+00  0.9094E+01
   4.598  0.4355E+00  0.9098E+01
   4.608  0.4335E+00  0.9103E+01
   4.618  0.4320E+00  0.9107E+01
   4.628  0.4311E+00  0.9111E+01
   4.638  0.4317E+00  0.9116E+01
   4.648  0.4328E+00  0.9120E+01
   4.658  0.4330E+00  0.9124E+01
   4.668  0.4329E+00  0.9129E+01
   4.678  0.4312E+00  0.9133E+01
   4.688  0.4296E+00  0.9137E+01
   4.698  0.4282E+00  0.9142E+01
   4.708  0.4281E+00  0.9146E+01
   4.718  0.4281E+00  0.9150E+01
   4.728  0.4281E+00  0.9155E+01
   4.738  0.4281E+00  0.9159E+01
   4.748  0.4281E+00  0.9163E+01
   4.758  0.4281E+00  0.9167E+01
   4.768  0.4280E+00  0.9172E+01
   4.778  0.4280E+00  0.9176E+01
   4.788  0.4280E+00  0.9180E+01
   4.798  0.4280E+00  0.9184E+01
   4.808  0.4279E+00  0.9189E+01
   4.818  0.4279E+00  0.9193E+01
   4.828  0.4279E+00  0.9197E+01
   4.838  0.4279E+00  0.9202E+01
   4.848  0.4279E+00  0.9206E+01
   4.858  0.4279E+00  0.9210E+01
   4.868  0.4279E+00  0.9214E+01
   4.878  0.4280E+00  0.9219E+01
   4.888  0.4280E+00  0.9223E+01
   4.898  0.4281E+00  0.9227E+01
   4.908  0.4281E+00  0.9232E+01
   4.918  0.4282E+00  0.9236E+01
   4.928  0.4283E+00  0.9240E+01
   4.938  0.4284E+00  0.9244E+01
   4.948  0.4286E+00  0.9249E+01
   4.958  0.4287E+00  0.9253E+01
   4.968  0.4288E+00  0.9257E+01
   4.978  0.4290E+00  0.9262E+01
   4.988  0.4292E+00  0.9266E+01
   4.998  0.4293E+00  0.9270E+01
   5.008  0.4295E+00  0.9274E+01
   5.018  0.4298E+00  0.9279E+01
   5.028  0.4300E+00  0.9283E+01
   5.038  0.4302E+00  0.9287E+01
   5.048  0.4304E+00  0.9292E+01
   5.058  0.4307E+00  0.9296E+01
   5.068  0.4310E+00  0.9300E+01
   5.078  0.4313E+00  0.9305E+01
   5.088  0.4315E+00  0.9309E+01
   5.098  0.4319E+00  0.9313E+01
   5.108  0.4322E+00  0.9318E+01
   5.118  0.4325E+00  0.9322E+01
   5.128  0.4328E+00  0.9326E+01
   5.138  0.4332E+00  0.9330E+01
   5.148  0.4336E+00  0.9335E+01
   5.158  0.4339E+00  0.9339E+01
   5.168  0.4343E+00  0.9344E+01
   5.178  0.4347E+00  0.9348E+01
   5.188  0.4351E+00  0.9352E+01
   5.198  0.4356E+00  0.9357E+01
   5.208  0.4360E+00  0.9361E+01
   5.218  0.4364E+00  0.9365E+01
   5.228  0.4368E+00  0.9370E+01
   5.238  0.4371E+00  0.9374E+01
   5.248  0.4315E+00  0.9378E+01
   5.258  0.4121E+00  0.9383E+01
   5.268  0.3769E+00  0.9387E+01
   5.278  0.3505E+00  0.9390E+01
   5.288  0.3648E+00  0.9394E+01
   5.298  0.3879E+00  0.9397E+01
   5.308  0.3901E+00  0.9401E+01
   5.318  0.3857E+00  0.9405E+01
   5.328  0.3831E+00  0.9409E+01
   5.338  0.3816E+00  0.9413E+01
   5.348  0.3806E+00  0.9417E+01
   5.358  0.3797E+00  0.9421E+01
   5.368  0.3787E+00  0.9424E+01
   5.378  0.3782E+00  0.9428E+01
   5.388  0.3782E+00  0.9432E+01
   5.398  0.3778E+00  0.9436E+01
   5.408  0.3696E+00  0.9439E+01
   5.418  0.3570E+00  0.9443E+01
   5.428  0.3481E+00  0.9447E+01
   5.438  0.3530E+00  0.9450E+01
   5.448  0.3669E+00  0.9454E+01
   5.458  0.3783E+00  0.9457E+01
   5.468  0.3870E+00  0.9461E+01
   5.478  0.3920E+00  0.9465E+01
   5.488  0.3927E+00  0.9469E+01
   5.498  0.3923E+00  0.9473E+01
   5.508  0.3920E+00  0.9477E+01
   5.518  0.3916E+00  0.9481E+01
   5.528  0.3916E+00  0.9485E+01
   5.538  0.3919E+00  0.9489E+01
   5.548  0.3923E+00  0.9493E+01
   5.558  0.3926E+00  0.9496E+01
   5.568  0.3929E+00  0.9500E+01
   5.578  0.3932E+00  0.9504E+01
   5.588  0.3935E+00  0.9508E+01
   5.598  0.3938E+00  0.9512E+01
   5.608  0.3941E+00  0.9516E+01
   5.618  0.3944E+00  0.9520E+01
   5.628  0.3947E+00  0.9524E+01
   5.638  0.3949E+00  0.9528E+01
   5.648  0.3953E+00  0.9532E+01
   5.658  0.3956E+00  0.9536E+01
   5.668  0.3959E+00  0.9540E+01
   5.678  0.3963E+00  0.9544E+01
   5.688  0.3967E+00  0.9548E+01
   5.698  0.3972E+00  0.9552E+01
   5.708  0.3977E+00  0.9556E+01
   5.718  0.3984E+00  0.9560E+01
   5.728  0.3991E+00  0.9564E+01
   5.738  0.3990E+00  0.9568E+01
   5.748  0.3976E+00  0.9572E+01
   5.758  0.3954E+00  0.9576E+01
   5.768  0.3939E+00  0.9580E+01
   5.778  0.3936E+00  0.9584E+01
   5.788  0.3940E+00  0.9587E+01
   5.798  0.3945E+00  0.9591E+01
   5.808  0.3949E+00  0.9595E+01
   5.818  0.3954E+00  0.9599E+01
   5.828  0.3959E+00  0.9603E+01
   5.838  0.3977E+00  0.9607E+01
   5.848  0.4012E+00  0.9611E+01
   5.858  0.4061E+00  0.9615E+01
   5.868  0.4120E+00  0.9619E+01
   5.878  0.4179E+00  0.9623E+01
   5.888  0.4232E+00  0.9628E+01
   5.898  0.4283E+00  0.9632E+01
   5.908  0.4333E+00  0.9636E+01
   5.918  0.4380E+00  0.9641E+01
   5.928  0.4429E+00  0.9645E+01
   5.938  0.4538E+00  0.9649E+01
   5.948  0.4725E+00  0.9654E+01
   5.958  0.4990E+00  0.9659E+01
   5.968  0.5321E+00  0.9664E+01
   5.978  0.5538E+00  0.9670E+01
   5.988  0.5591E+00  0.9675E+01
   5.998  0.5594E+00  0.9681E+01
   6.008  0.5598E+00  0.9686E+01
   6.018  0.5601E+00  0.9692E+01
   6.028  0.5605E+00  0.9698E+01
   6.038  0.5606E+00  0.9703E+01
   6.048  0.5602E+00  0.9709E+01
   6.058  0.5594E+00  0.9714E+01
   6.068  0.5581E+00  0.9720E+01
   6.078  0.5563E+00  0.9725E+01
   6.088  0.5543E+00  0.9731E+01
   6.098  0.5523E+00  0.9737E+01
   6.108  0.5503E+00  0.9742E+01
   6.118  0.5483E+00  0.9748E+01
   6.128  0.5463E+00  0.9753E+01
   6.138  0.5442E+00  0.9759E+01
   6.148  0.5422E+00  0.9764E+01
   6.158  0.5401E+00  0.9769E+01
   6.168  0.5380E+00  0.9775E+01
   6.178  0.5359E+00  0.9780E+01
   6.188  0.5337E+00  0.9785E+01
   6.198  0.5316E+00  0.9791E+01
   6.208  0.5294E+00  0.9796E+01
   6.218  0.5272E+00  0.9801E+01
   6.228  0.5250E+00  0.9807E+01
   6.238  0.5228E+00  0.9812E+01
   6.248  0.5205E+00  0.9817E+01
   6.258  0.5182E+00  0.9822E+01
   6.268  0.5160E+00  0.9827E+01
   6.278  0.5137E+00  0.9833E+01
   6.288  0.5113E+00  0.9838E+01
   6.298  0.5090E+00  0.9843E+01
   6.308  0.5066E+00  0.9848E+01
   6.318  0.5043E+00  0.9853E+01
   6.328  0.5019E+00  0.9858E+01
   6.338  0.4995E+00  0.9863E+01
   6.348  0.4970E+00  0.9868E+01
   6.358  0.4946E+00  0.9873E+01
   6.368  0.4921E+00  0.9878E+01
   6.378  0.4897E+00  0.9883E+01
   6.388  0.4872E+00  0.9888E+01
   6.398  0.4846E+00  0.9893E+01
   6.408  0.4821E+00  0.9897E+01
   6.418  0.4796E+00  0.9902E+01
   6.428  0.4770E+00  0.9907E+01
   6.438  0.4744E+00  0.9912E+01
   6.448  0.4718E+00  0.9916E+01
   6.458  0.4692E+00  0.9921E+01
   6.468  0.4665E+00  0.9926E+01
   6.478  0.4607E+00  0.9930E+01
   6.488  0.4526E+00  0.9935E+01
   6.498  0.4443E+00  0.9940E+01
   6.508  0.4304E+00  0.9944E+01
   6.518  0.4145E+00  0.9948E+01
   6.528  0.3988E+00  0.9952E+01
   6.538  0.3831E+00  0.9956E+01
   6.548  0.3674E+00  0.9960E+01
   6.558  0.3515E+00  0.9963E+01
   6.568  0.3356E+00  0.9967E+01
   6.578  0.3193E+00  0.9970E+01
   6.588  0.3031E+00  0.9973E+01
   6.598  0.2869E+00  0.9976E+01
   6.608  0.2703E+00  0.9979E+01
   6.618  0.2534E+00  0.9982E+01
   6.628  0.2361E+00  0.9984E+01
   6.638  0.2185E+00  0.9986E+01
   6.648  0.2006E+00  0.9988E+01
   6.658  0.1824E+00  0.9990E+01
   6.668  0.1639E+00  0.9992E+01
   6.678  0.1451E+00  0.9994E+01
   6.688  0.1262E+00  0.9995E+01
   6.698  0.1077E+00  0.9996E+01
   6.708  0.8906E-01  0.9997E+01
   6.718  0.7022E-01  0.9998E+01
   6.728  0.5216E-01  0.9999E+01
   6.738  0.4504E-01  0.9999E+01
   6.748  0.3938E-01  0.9999E+01
   6.758  0.3522E-01  0.1000E+02
   6.768  0.3712E-01  0.1000E+02
   6.778  0.4151E-01  0.1000E+02
   6.788  0.4639E-01  0.1000E+02
   6.798  0.5643E-01  0.1000E+02
   6.808  0.6781E-01  0.1000E+02
   6.818  0.7957E-01  0.1000E+02
   6.828  0.9252E-01  0.1000E+02
   6.838  0.1056E+00  0.1000E+02
   6.848  0.1186E+00  0.1001E+02
   6.858  0.1315E+00  0.1001E+02
   6.868  0.1444E+00  0.1001E+02
   6.878  0.1573E+00  0.1001E+02
   6.888  0.1700E+00  0.1001E+02
   6.898  0.1827E+00  0.1001E+02
   6.908  0.1953E+00  0.1002E+02
   6.918  0.2078E+00  0.1002E+02
   6.928  0.2202E+00  0.1002E+02
   6.938  0.2326E+00  0.1002E+02
   6.948  0.2448E+00  0.1002E+02
   6.958  0.2569E+00  0.1003E+02
   6.968  0.2690E+00  0.1003E+02
   6.978  0.2809E+00  0.1003E+02
   6.988  0.2927E+00  0.1003E+02
   6.998  0.3044E+00  0.1004E+02
   7.008  0.3160E+00  0.1004E+02
   7.018  0.3276E+00  0.1004E+02
   7.028  0.3390E+00  0.1005E+02
   7.038  0.3504E+00  0.1005E+02
   7.048  0.3617E+00  0.1005E+02
   7.058  0.3733E+00  0.1006E+02
   7.068  0.3861E+00  0.1006E+02
   7.078  0.4001E+00  0.1007E+02
   7.088  0.4233E+00  0.1007E+02
   7.098  0.4634E+00  0.1007E+02
   7.108  0.5017E+00  0.1008E+02
   7.118  0.5382E+00  0.1008E+02
   7.128  0.5730E+00  0.1009E+02
   7.138  0.6061E+00  0.1010E+02
   7.148  0.6373E+00  0.1010E+02
   7.158  0.6681E+00  0.1011E+02
   7.168  0.6975E+00  0.1012E+02
   7.178  0.7251E+00  0.1012E+02
   7.188  0.7508E+00  0.1013E+02
   7.198  0.7749E+00  0.1014E+02
   7.208  0.7972E+00  0.1015E+02
   7.218  0.8178E+00  0.1015E+02
   7.228  0.8362E+00  0.1016E+02
   7.238  0.8525E+00  0.1017E+02
   7.248  0.8668E+00  0.1018E+02
   7.258  0.8789E+00  0.1019E+02
   7.268  0.8911E+00  0.1020E+02
   7.278  0.8917E+00  0.1021E+02
   7.288  0.8615E+00  0.1021E+02
   7.298  0.8015E+00  0.1022E+02
   7.308  0.7878E+00  0.1023E+02
   7.318  0.7787E+00  0.1024E+02
   7.328  0.7754E+00  0.1025E+02
   7.338  0.7724E+00  0.1025E+02
   7.348  0.7695E+00  0.1026E+02
   7.358  0.7667E+00  0.1027E+02
   7.368  0.7641E+00  0.1028E+02
   7.378  0.7615E+00  0.1028E+02
   7.388  0.7591E+00  0.1029E+02
   7.398  0.7568E+00  0.1030E+02
   7.408  0.7547E+00  0.1031E+02
   7.418  0.7526E+00  0.1031E+02
   7.428  0.7507E+00  0.1032E+02
   7.438  0.7489E+00  0.1033E+02
   7.448  0.7472E+00  0.1034E+02
   7.458  0.7456E+00  0.1034E+02
   7.468  0.7442E+00  0.1035E+02
   7.478  0.7428E+00  0.1036E+02
   7.488  0.7416E+00  0.1037E+02
   7.498  0.7405E+00  0.1037E+02
   7.508  0.7396E+00  0.1038E+02
   7.518  0.7387E+00  0.1039E+02
   7.528  0.7380E+00  0.1040E+02
   7.538  0.7374E+00  0.1040E+02
   7.548  0.7369E+00  0.1041E+02
   7.558  0.7365E+00  0.1042E+02
   7.568  0.7363E+00  0.1043E+02
   7.578  0.7362E+00  0.1043E+02
   7.588  0.7361E+00  0.1044E+02
   7.598  0.7363E+00  0.1045E+02
   7.608  0.7365E+00  0.1046E+02
   7.618  0.7368E+00  0.1046E+02
   7.628  0.7373E+00  0.1047E+02
   7.638  0.7379E+00  0.1048E+02
   7.648  0.7386E+00  0.1048E+02
   7.658  0.7394E+00  0.1049E+02
   7.668  0.7404E+00  0.1050E+02
   7.678  0.7414E+00  0.1051E+02
   7.688  0.7419E+00  0.1051E+02
   7.698  0.7423E+00  0.1052E+02
   7.708  0.7423E+00  0.1053E+02
   7.718  0.7400E+00  0.1054E+02
   7.728  0.7227E+00  0.1054E+02
   7.738  0.7078E+00  0.1055E+02
   7.748  0.6931E+00  0.1056E+02
   7.758  0.6789E+00  0.1057E+02
   7.768  0.6730E+00  0.1057E+02
   7.778  0.6695E+00  0.1058E+02
   7.788  0.6658E+00  0.1059E+02
   7.798  0.6618E+00  0.1059E+02
   7.808  0.6576E+00  0.1060E+02
   7.818  0.6532E+00  0.1061E+02
   7.828  0.6503E+00  0.1061E+02
   7.838  0.6484E+00  0.1062E+02
   7.848  0.6476E+00  0.1062E+02
   7.858  0.6477E+00  0.1063E+02
   7.868  0.6478E+00  0.1064E+02
   7.878  0.6480E+00  0.1064E+02
   7.888  0.6482E+00  0.1065E+02
   7.898  0.6359E+00  0.1066E+02
   7.908  0.5999E+00  0.1066E+02
   7.918  0.5692E+00  0.1067E+02
   7.928  0.5735E+00  0.1067E+02
   7.938  0.5891E+00  0.1068E+02
   7.948  0.5966E+00  0.1069E+02
   7.958  0.5900E+00  0.1069E+02
   7.968  0.5835E+00  0.1070E+02
   7.978  0.5823E+00  0.1070E+02
   7.988  0.5814E+00  0.1071E+02
   7.998  0.5808E+00  0.1072E+02
   8.008  0.5823E+00  0.1072E+02
   8.018  0.5865E+00  0.1073E+02
   8.028  0.5933E+00  0.1073E+02
   8.038  0.6018E+00  0.1074E+02
   8.048  0.6098E+00  0.1075E+02
   8.058  0.6172E+00  0.1075E+02
   8.068  0.6240E+00  0.1076E+02
   8.078  0.6301E+00  0.1076E+02
   8.088  0.6365E+00  0.1077E+02
   8.098  0.6448E+00  0.1078E+02
   8.108  0.6552E+00  0.1078E+02
   8.118  0.6680E+00  0.1079E+02
   8.128  0.6832E+00  0.1080E+02
   8.138  0.7007E+00  0.1080E+02
   8.148  0.7201E+00  0.1081E+02
   8.158  0.7414E+00  0.1082E+02
   8.168  0.7635E+00  0.1083E+02
   8.178  0.7809E+00  0.1083E+02
   8.188  0.7928E+00  0.1084E+02
   8.198  0.7992E+00  0.1085E+02
   8.208  0.8002E+00  0.1086E+02
   8.218  0.7965E+00  0.1086E+02
   8.228  0.7927E+00  0.1087E+02
   8.238  0.7895E+00  0.1088E+02
   8.248  0.7863E+00  0.1089E+02
   8.258  0.7836E+00  0.1090E+02
   8.268  0.7810E+00  0.1090E+02
   8.278  0.7783E+00  0.1091E+02
   8.288  0.7758E+00  0.1092E+02
   8.298  0.7736E+00  0.1093E+02
   8.308  0.7717E+00  0.1094E+02
   8.318  0.7733E+00  0.1094E+02
   8.328  0.7928E+00  0.1095E+02
   8.338  0.8115E+00  0.1096E+02
   8.348  0.8362E+00  0.1097E+02
   8.358  0.8678E+00  0.1098E+02
   8.368  0.8988E+00  0.1098E+02
   8.378  0.9383E+00  0.1099E+02
   8.388  0.9771E+00  0.1100E+02
   8.398  0.1007E+01  0.1101E+02
   8.408  0.1009E+01  0.1102E+02
   8.418  0.1026E+01  0.1103E+02
   8.428  0.1030E+01  0.1104E+02
   8.438  0.1034E+01  0.1105E+02
   8.448  0.1036E+01  0.1106E+02
   8.458  0.1035E+01  0.1107E+02
   8.468  0.1034E+01  0.1109E+02
   8.478  0.1031E+01  0.1110E+02
   8.488  0.1016E+01  0.1111E+02
   8.498  0.9977E+00  0.1112E+02
   8.508  0.9784E+00  0.1113E+02
   8.518  0.9594E+00  0.1114E+02
   8.528  0.9407E+00  0.1114E+02
   8.538  0.9223E+00  0.1115E+02
   8.548  0.9042E+00  0.1116E+02
   8.558  0.8865E+00  0.1117E+02
   8.568  0.8714E+00  0.1118E+02
   8.578  0.8613E+00  0.1119E+02
   8.588  0.8531E+00  0.1120E+02
   8.598  0.8457E+00  0.1121E+02
   8.608  0.8384E+00  0.1122E+02
   8.618  0.8331E+00  0.1122E+02
   8.628  0.8242E+00  0.1123E+02
   8.638  0.8006E+00  0.1124E+02
   8.648  0.7855E+00  0.1125E+02
   8.658  0.7466E+00  0.1126E+02
   8.668  0.6974E+00  0.1126E+02
   8.678  0.6782E+00  0.1127E+02
   8.688  0.6811E+00  0.1128E+02
   8.698  0.6865E+00  0.1128E+02
   8.708  0.6925E+00  0.1129E+02
   8.718  0.7001E+00  0.1130E+02
   8.728  0.7077E+00  0.1130E+02
   8.738  0.7153E+00  0.1131E+02
   8.748  0.7236E+00  0.1132E+02
   8.758  0.7316E+00  0.1133E+02
   8.768  0.7395E+00  0.1133E+02
   8.778  0.7473E+00  0.1134E+02
   8.788  0.7549E+00  0.1135E+02
   8.798  0.7623E+00  0.1136E+02
   8.808  0.7695E+00  0.1136E+02
   8.818  0.7766E+00  0.1137E+02
   8.828  0.7835E+00  0.1138E+02
   8.838  0.7901E+00  0.1139E+02
   8.848  0.7966E+00  0.1139E+02
   8.858  0.8029E+00  0.1140E+02
   8.868  0.8090E+00  0.1141E+02
   8.878  0.8149E+00  0.1142E+02
   8.888  0.8206E+00  0.1143E+02
   8.898  0.8262E+00  0.1144E+02
   8.908  0.8320E+00  0.1144E+02
   8.918  0.8391E+00  0.1145E+02
   8.928  0.8487E+00  0.1146E+02
   8.938  0.8718E+00  0.1147E+02
   8.948  0.9017E+00  0.1148E+02
   8.958  0.9322E+00  0.1149E+02
   8.968  0.9822E+00  0.1150E+02
   8.978  0.1116E+01  0.1151E+02
   8.988  0.1360E+01  0.1152E+02
   8.998  0.1510E+01  0.1153E+02
   9.008  0.1620E+01  0.1155E+02
   9.018  0.1749E+01  0.1157E+02
   9.028  0.1764E+01  0.1158E+02
   9.038  0.1846E+01  0.1160E+02
   9.048  0.1993E+01  0.1162E+02
   9.058  0.2101E+01  0.1164E+02
   9.068  0.2072E+01  0.1166E+02
   9.078  0.2047E+01  0.1168E+02
   9.088  0.2015E+01  0.1170E+02
   9.098  0.1962E+01  0.1172E+02
   9.108  0.1911E+01  0.1174E+02
   9.118  0.1861E+01  0.1176E+02
   9.128  0.1812E+01  0.1178E+02
   9.138  0.1763E+01  0.1180E+02
   9.148  0.1750E+01  0.1182E+02
   9.158  0.1737E+01  0.1183E+02
   9.168  0.1713E+01  0.1185E+02
   9.178  0.1683E+01  0.1187E+02
   9.188  0.1652E+01  0.1188E+02
   9.198  0.1621E+01  0.1190E+02
   9.208  0.1591E+01  0.1192E+02
   9.218  0.1568E+01  0.1193E+02
   9.228  0.1551E+01  0.1195E+02
   9.238  0.1534E+01  0.1196E+02
   9.248  0.1816E+01  0.1198E+02
   9.258  0.3033E+01  0.1200E+02
   9.268  0.9705E+01  0.1204E+02
   9.278  0.2026E+01  0.1207E+02
   9.288  0.2136E+01  0.1209E+02
   9.298  0.2129E+01  0.1212E+02
   9.308  0.2102E+01  0.1214E+02
   9.318  0.2079E+01  0.1216E+02
   9.328  0.2055E+01  0.1218E+02
   9.338  0.2031E+01  0.1220E+02
   9.348  0.2006E+01  0.1222E+02
   9.358  0.1980E+01  0.1224E+02
   9.368  0.1954E+01  0.1226E+02
   9.378  0.1927E+01  0.1228E+02
   9.388  0.1899E+01  0.1230E+02
   9.398  0.1871E+01  0.1232E+02
   9.408  0.1842E+01  0.1233E+02
   9.418  0.1812E+01  0.1235E+02
   9.428  0.1781E+01  0.1237E+02
   9.438  0.1750E+01  0.1239E+02
   9.448  0.1718E+01  0.1241E+02
   9.458  0.1685E+01  0.1242E+02
   9.468  0.1651E+01  0.1244E+02
   9.478  0.1615E+01  0.1246E+02
   9.488  0.1579E+01  0.1247E+02
   9.498  0.1546E+01  0.1249E+02
   9.508  0.1514E+01  0.1250E+02
   9.518  0.1479E+01  0.1252E+02
   9.528  0.1447E+01  0.1253E+02
   9.538  0.1419E+01  0.1255E+02
   9.548  0.1395E+01  0.1256E+02
   9.558  0.1371E+01  0.1257E+02
   9.568  0.1327E+01  0.1259E+02
   9.578  0.1264E+01  0.1260E+02
   9.588  0.1210E+01  0.1261E+02
   9.598  0.1079E+01  0.1262E+02
   9.608  0.1020E+01  0.1263E+02
   9.618  0.1054E+01  0.1265E+02
   9.628  0.1117E+01  0.1266E+02
   9.638  0.1127E+01  0.1267E+02
   9.648  0.1128E+01  0.1268E+02
   9.658  0.1139E+01  0.1269E+02
   9.668  0.1143E+01  0.1270E+02
   9.678  0.1131E+01  0.1271E+02
   9.688  0.1102E+01  0.1272E+02
   9.698  0.1069E+01  0.1273E+02
   9.708  0.1076E+01  0.1275E+02
   9.718  0.1082E+01  0.1276E+02
   9.728  0.1086E+01  0.1277E+02
   9.738  0.1095E+01  0.1278E+02
   9.748  0.1112E+01  0.1279E+02
   9.758  0.1142E+01  0.1280E+02
   9.768  0.1253E+01  0.1281E+02
   9.778  0.1341E+01  0.1283E+02
   9.788  0.1392E+01  0.1284E+02
   9.798  0.1402E+01  0.1285E+02
   9.808  0.1400E+01  0.1287E+02
   9.818  0.1394E+01  0.1288E+02
   9.828  0.1389E+01  0.1289E+02
   9.838  0.1385E+01  0.1291E+02
   9.848  0.1381E+01  0.1292E+02
   9.858  0.1378E+01  0.1294E+02
   9.868  0.1374E+01  0.1295E+02
   9.878  0.1371E+01  0.1296E+02
   9.888  0.1368E+01  0.1298E+02
   9.898  0.1366E+01  0.1299E+02
   9.908  0.1363E+01  0.1300E+02
   9.918  0.1361E+01  0.1302E+02
   9.928  0.1360E+01  0.1303E+02
   9.938  0.1358E+01  0.1305E+02
   9.948  0.1357E+01  0.1306E+02
   9.958  0.1356E+01  0.1307E+02
   9.968  0.1356E+01  0.1309E+02
   9.978  0.1358E+01  0.1310E+02
   9.988  0.1360E+01  0.1311E+02
   9.998  0.1362E+01  0.1313E+02
  10.008  0.1364E+01  0.1314E+02
  10.018  0.1365E+01  0.1315E+02
  10.028  0.1367E+01  0.1317E+02
  10.038  0.1368E+01  0.1318E+02
  10.048  0.1371E+01  0.1320E+02
  10.058  0.1374E+01  0.1321E+02
  10.068  0.1376E+01  0.1322E+02
  10.078  0.1378E+01  0.1324E+02
  10.088  0.1380E+01  0.1325E+02
  10.098  0.1382E+01  0.1326E+02
  10.108  0.1385E+01  0.1328E+02
  10.118  0.1387E+01  0.1329E+02
  10.128  0.1379E+01  0.1331E+02
  10.138  0.1367E+01  0.1332E+02
  10.148  0.1351E+01  0.1333E+02
  10.158  0.1319E+01  0.1335E+02
  10.168  0.1291E+01  0.1336E+02
  10.178  0.1264E+01  0.1337E+02
  10.188  0.1236E+01  0.1338E+02
  10.198  0.1207E+01  0.1340E+02
  10.208  0.1178E+01  0.1341E+02
  10.218  0.1147E+01  0.1342E+02
  10.228  0.1116E+01  0.1343E+02
  10.238  0.1085E+01  0.1344E+02
  10.248  0.1052E+01  0.1345E+02
  10.258  0.1019E+01  0.1346E+02
  10.268  0.9852E+00  0.1347E+02
  10.278  0.9500E+00  0.1348E+02
  10.288  0.9134E+00  0.1349E+02
  10.298  0.8826E+00  0.1350E+02
  10.308  0.8695E+00  0.1351E+02
  10.318  0.8565E+00  0.1352E+02
  10.328  0.8434E+00  0.1353E+02
  10.338  0.8301E+00  0.1354E+02
  10.348  0.8166E+00  0.1354E+02
  10.358  0.8074E+00  0.1355E+02
  10.368  0.8058E+00  0.1356E+02
  10.378  0.8045E+00  0.1357E+02
  10.388  0.8034E+00  0.1358E+02
  10.398  0.8023E+00  0.1358E+02
  10.408  0.8013E+00  0.1359E+02
  10.418  0.8003E+00  0.1360E+02
  10.428  0.7994E+00  0.1361E+02
  10.438  0.7988E+00  0.1362E+02
  10.448  0.7993E+00  0.1362E+02
  10.458  0.7999E+00  0.1363E+02
  10.468  0.8005E+00  0.1364E+02
  10.478  0.8011E+00  0.1365E+02
  10.488  0.8016E+00  0.1366E+02
  10.498  0.8002E+00  0.1366E+02
  10.508  0.7986E+00  0.1367E+02
  10.518  0.7970E+00  0.1368E+02
  10.528  0.7953E+00  0.1369E+02
  10.538  0.7935E+00  0.1370E+02
  10.548  0.7918E+00  0.1370E+02
  10.558  0.7906E+00  0.1371E+02
  10.568  0.7897E+00  0.1372E+02
  10.578  0.7885E+00  0.1373E+02
  10.588  0.7869E+00  0.1374E+02
  10.598  0.7844E+00  0.1374E+02
  10.608  0.7814E+00  0.1375E+02
  10.618  0.7781E+00  0.1376E+02
  10.628  0.7748E+00  0.1377E+02
  10.638  0.7717E+00  0.1377E+02
  10.648  0.7688E+00  0.1378E+02
  10.658  0.7661E+00  0.1379E+02
  10.668  0.7637E+00  0.1380E+02
  10.678  0.7618E+00  0.1381E+02
  10.688  0.7619E+00  0.1381E+02
  10.698  0.7645E+00  0.1382E+02
  10.708  0.7706E+00  0.1383E+02
  10.718  0.7803E+00  0.1384E+02
  10.728  0.7931E+00  0.1384E+02
  10.738  0.8068E+00  0.1385E+02
  10.748  0.8205E+00  0.1386E+02
  10.758  0.8321E+00  0.1387E+02
  10.768  0.8416E+00  0.1388E+02
  10.778  0.8496E+00  0.1389E+02
  10.788  0.8555E+00  0.1389E+02
  10.798  0.8593E+00  0.1390E+02
  10.808  0.8610E+00  0.1391E+02
  10.818  0.8607E+00  0.1392E+02
  10.828  0.8586E+00  0.1393E+02
  10.838  0.8562E+00  0.1394E+02
  10.848  0.8540E+00  0.1395E+02
  10.858  0.8517E+00  0.1395E+02
  10.868  0.8493E+00  0.1396E+02
  10.878  0.8469E+00  0.1397E+02
  10.888  0.8444E+00  0.1398E+02
  10.898  0.8426E+00  0.1399E+02
  10.908  0.8409E+00  0.1400E+02
  10.918  0.8392E+00  0.1400E+02
  10.928  0.8375E+00  0.1401E+02
  10.938  0.8358E+00  0.1402E+02
  10.948  0.8468E+00  0.1403E+02
  10.958  0.8611E+00  0.1404E+02
  10.968  0.8202E+00  0.1405E+02
  10.978  0.8768E+00  0.1406E+02
  10.988  0.9671E+00  0.1406E+02
  10.998  0.9814E+00  0.1407E+02
  11.008  0.9924E+00  0.1408E+02
  11.018  0.1005E+01  0.1409E+02
  11.028  0.1020E+01  0.1410E+02
  11.038  0.1037E+01  0.1411E+02
  11.048  0.1056E+01  0.1412E+02
  11.058  0.1076E+01  0.1414E+02
  11.068  0.1096E+01  0.1415E+02
  11.078  0.1116E+01  0.1416E+02
  11.088  0.1137E+01  0.1417E+02
  11.098  0.1158E+01  0.1418E+02
  11.108  0.1180E+01  0.1419E+02
  11.118  0.1204E+01  0.1420E+02
  11.128  0.1132E+01  0.1422E+02
  11.138  0.1017E+01  0.1423E+02
  11.148  0.9360E+00  0.1424E+02
  11.158  0.8788E+00  0.1425E+02
  11.168  0.8453E+00  0.1425E+02
  11.178  0.8442E+00  0.1426E+02
  11.188  0.8452E+00  0.1427E+02
  11.198  0.8455E+00  0.1428E+02
  11.208  0.8458E+00  0.1429E+02
  11.218  0.8461E+00  0.1430E+02
  11.228  0.8465E+00  0.1430E+02
  11.238  0.8469E+00  0.1431E+02
  11.248  0.8473E+00  0.1432E+02
  11.258  0.8477E+00  0.1433E+02
  11.268  0.8480E+00  0.1434E+02
  11.278  0.8482E+00  0.1435E+02
  11.288  0.8485E+00  0.1436E+02
  11.298  0.8487E+00  0.1436E+02
  11.308  0.8489E+00  0.1437E+02
  11.318  0.8490E+00  0.1438E+02
  11.328  0.8492E+00  0.1439E+02
  11.338  0.8492E+00  0.1440E+02
  11.348  0.8493E+00  0.1441E+02
  11.358  0.8492E+00  0.1441E+02
  11.368  0.8491E+00  0.1442E+02
  11.378  0.8489E+00  0.1443E+02
  11.388  0.8483E+00  0.1444E+02
  11.398  0.8475E+00  0.1445E+02
  11.408  0.8472E+00  0.1446E+02
  11.418  0.8477E+00  0.1447E+02
  11.428  0.8474E+00  0.1447E+02
  11.438  0.8448E+00  0.1448E+02
  11.448  0.8410E+00  0.1449E+02
  11.458  0.8372E+00  0.1450E+02
  11.468  0.8337E+00  0.1451E+02
  11.478  0.8301E+00  0.1452E+02
  11.488  0.8274E+00  0.1452E+02
  11.498  0.8249E+00  0.1453E+02
  11.508  0.8224E+00  0.1454E+02
  11.518  0.8198E+00  0.1455E+02
  11.528  0.8172E+00  0.1456E+02
  11.538  0.8145E+00  0.1457E+02
  11.548  0.8119E+00  0.1457E+02
  11.558  0.8092E+00  0.1458E+02
  11.568  0.8065E+00  0.1459E+02
  11.578  0.8038E+00  0.1460E+02
  11.588  0.8011E+00  0.1461E+02
  11.598  0.8001E+00  0.1461E+02
  11.608  0.8005E+00  0.1462E+02
  11.618  0.8025E+00  0.1463E+02
  11.628  0.8071E+00  0.1464E+02
  11.638  0.8112E+00  0.1465E+02
  11.648  0.8150E+00  0.1465E+02
  11.658  0.8186E+00  0.1466E+02
  11.668  0.8220E+00  0.1467E+02
  11.678  0.8253E+00  0.1468E+02
  11.688  0.8286E+00  0.1469E+02
  11.698  0.8319E+00  0.1470E+02
  11.708  0.8352E+00  0.1470E+02
  11.718  0.8388E+00  0.1471E+02
  11.728  0.8439E+00  0.1472E+02
  11.738  0.8494E+00  0.1473E+02
  11.748  0.8555E+00  0.1474E+02
  11.758  0.8636E+00  0.1475E+02
  11.768  0.8721E+00  0.1475E+02
  11.778  0.8811E+00  0.1476E+02
  11.788  0.8905E+00  0.1477E+02
  11.798  0.9004E+00  0.1478E+02
  11.808  0.9107E+00  0.1479E+02
  11.818  0.9214E+00  0.1480E+02
  11.828  0.9328E+00  0.1481E+02
  11.838  0.9449E+00  0.1482E+02
  11.848  0.9577E+00  0.1483E+02
  11.858  0.9709E+00  0.1484E+02
  11.868  0.9847E+00  0.1485E+02
  11.878  0.9989E+00  0.1486E+02
  11.888  0.1014E+01  0.1487E+02
  11.898  0.1030E+01  0.1488E+02
  11.908  0.1047E+01  0.1489E+02
  11.918  0.1164E+01  0.1490E+02
  11.928  0.2004E+01  0.1492E+02
  11.938  0.2129E+01  0.1494E+02
  11.948  0.1828E+01  0.1496E+02
  11.958  0.1582E+01  0.1497E+02
  11.968  0.1412E+01  0.1499E+02
  11.978  0.1317E+01  0.1500E+02
  11.988  0.1266E+01  0.1501E+02
  11.998  0.1178E+01  0.1503E+02
  12.008  0.1080E+01  0.1504E+02
  12.018  0.1031E+01  0.1505E+02
  12.028  0.9813E+00  0.1506E+02
  12.038  0.9312E+00  0.1507E+02
  12.048  0.8861E+00  0.1508E+02
  12.058  0.8511E+00  0.1509E+02
  12.068  0.8266E+00  0.1509E+02
  12.078  0.8031E+00  0.1510E+02
  12.088  0.7808E+00  0.1511E+02
  12.098  0.7598E+00  0.1512E+02
  12.108  0.7429E+00  0.1513E+02
  12.118  0.7276E+00  0.1513E+02
  12.128  0.7135E+00  0.1514E+02
  12.138  0.7005E+00  0.1515E+02
  12.148  0.6885E+00  0.1515E+02
  12.158  0.6776E+00  0.1516E+02
  12.168  0.6678E+00  0.1517E+02
  12.178  0.6591E+00  0.1517E+02
  12.188  0.6514E+00  0.1518E+02
  12.198  0.6447E+00  0.1519E+02
  12.208  0.6380E+00  0.1519E+02
  12.218  0.6313E+00  0.1520E+02
  12.228  0.6242E+00  0.1521E+02
  12.238  0.6170E+00  0.1521E+02
  12.248  0.6072E+00  0.1522E+02
  12.258  0.5964E+00  0.1522E+02
  12.268  0.5851E+00  0.1523E+02
  12.278  0.5750E+00  0.1524E+02
  12.288  0.5687E+00  0.1524E+02
  12.298  0.5647E+00  0.1525E+02
  12.308  0.5682E+00  0.1525E+02
  12.318  0.5760E+00  0.1526E+02
  12.328  0.5817E+00  0.1526E+02
  12.338  0.5861E+00  0.1527E+02
  12.348  0.5907E+00  0.1528E+02
  12.358  0.6000E+00  0.1528E+02
  12.368  0.6271E+00  0.1529E+02
  12.378  0.6646E+00  0.1530E+02
  12.388  0.7110E+00  0.1530E+02
  12.398  0.7655E+00  0.1531E+02
  12.408  0.8256E+00  0.1532E+02
  12.418  0.8569E+00  0.1533E+02
  12.428  0.8715E+00  0.1533E+02
  12.438  0.8707E+00  0.1534E+02
  12.448  0.8673E+00  0.1535E+02
  12.458  0.8633E+00  0.1536E+02
  12.468  0.8589E+00  0.1537E+02
  12.478  0.8541E+00  0.1538E+02
  12.488  0.8488E+00  0.1539E+02
  12.498  0.8430E+00  0.1539E+02
  12.508  0.8370E+00  0.1540E+02
  12.518  0.8310E+00  0.1541E+02
  12.528  0.8251E+00  0.1542E+02
  12.538  0.8191E+00  0.1543E+02
  12.548  0.8132E+00  0.1544E+02
  12.558  0.8072E+00  0.1544E+02
  12.568  0.8013E+00  0.1545E+02
  12.578  0.7954E+00  0.1546E+02
  12.588  0.7895E+00  0.1547E+02
  12.598  0.7835E+00  0.1548E+02
  12.608  0.7776E+00  0.1548E+02
  12.618  0.7717E+00  0.1549E+02
  12.628  0.7659E+00  0.1550E+02
  12.638  0.7600E+00  0.1551E+02
  12.648  0.7541E+00  0.1551E+02
  12.658  0.7483E+00  0.1552E+02
  12.668  0.7424E+00  0.1553E+02
  12.678  0.7366E+00  0.1554E+02
  12.688  0.7307E+00  0.1554E+02
  12.698  0.7249E+00  0.1555E+02
  12.708  0.7191E+00  0.1556E+02
  12.718  0.7132E+00  0.1557E+02
  12.728  0.7074E+00  0.1557E+02
  12.738  0.7016E+00  0.1558E+02
  12.748  0.6959E+00  0.1559E+02
  12.758  0.6901E+00  0.1559E+02
  12.768  0.6843E+00  0.1560E+02
  12.778  0.6785E+00  0.1561E+02
  12.788  0.6728E+00  0.1561E+02
  12.798  0.6670E+00  0.1562E+02
  12.808  0.6613E+00  0.1563E+02
  12.818  0.6555E+00  0.1563E+02
  12.828  0.6498E+00  0.1564E+02
  12.838  0.6441E+00  0.1565E+02
  12.848  0.6384E+00  0.1565E+02
  12.858  0.6327E+00  0.1566E+02
  12.868  0.6270E+00  0.1567E+02
  12.878  0.6213E+00  0.1567E+02
  12.888  0.6156E+00  0.1568E+02
  12.898  0.6100E+00  0.1568E+02
  12.908  0.6043E+00  0.1569E+02
  12.918  0.5987E+00  0.1570E+02
  12.928  0.5930E+00  0.1570E+02
  12.938  0.5874E+00  0.1571E+02
  12.948  0.5817E+00  0.1571E+02
  12.958  0.5761E+00  0.1572E+02
  12.968  0.5705E+00  0.1573E+02
  12.978  0.5649E+00  0.1573E+02
  12.988  0.5593E+00  0.1574E+02
  12.998  0.5537E+00  0.1574E+02
  13.008  0.5481E+00  0.1575E+02
  13.018  0.5426E+00  0.1575E+02
  13.028  0.5370E+00  0.1576E+02
  13.038  0.5314E+00  0.1576E+02
  13.048  0.5259E+00  0.1577E+02
  13.058  0.5203E+00  0.1578E+02
  13.068  0.5148E+00  0.1578E+02
  13.078  0.5093E+00  0.1579E+02
  13.088  0.5037E+00  0.1579E+02
  13.098  0.4981E+00  0.1580E+02
  13.108  0.4925E+00  0.1580E+02
  13.118  0.4868E+00  0.1581E+02
  13.128  0.4810E+00  0.1581E+02
  13.138  0.4658E+00  0.1582E+02
  13.148  0.3764E+00  0.1582E+02
  13.158  0.3868E+00  0.1582E+02
  13.168  0.4940E+00  0.1583E+02
  13.178  0.4858E+00  0.1583E+02
  13.188  0.4773E+00  0.1584E+02
  13.198  0.5182E+00  0.1584E+02
  13.208  0.6747E+00  0.1585E+02
  13.218  0.8153E+00  0.1586E+02
  13.228  0.8962E+00  0.1586E+02
  13.238  0.9057E+00  0.1587E+02
  13.248  0.8669E+00  0.1588E+02
  13.258  0.1163E+01  0.1589E+02
  13.268  0.1530E+01  0.1591E+02
  13.278  0.7508E+00  0.1592E+02
  13.288  0.5146E+00  0.1592E+02
  13.298  0.4546E+00  0.1593E+02
  13.308  0.4063E+00  0.1593E+02
  13.318  0.3689E+00  0.1594E+02
  13.328  0.3419E+00  0.1594E+02
  13.338  0.3234E+00  0.1594E+02
  13.348  0.3067E+00  0.1595E+02
  13.358  0.2910E+00  0.1595E+02
  13.368  0.2764E+00  0.1595E+02
  13.378  0.2629E+00  0.1595E+02
  13.388  0.2504E+00  0.1596E+02
  13.398  0.2390E+00  0.1596E+02
  13.408  0.2286E+00  0.1596E+02
  13.418  0.2193E+00  0.1596E+02
  13.428  0.2110E+00  0.1597E+02
  13.438  0.2038E+00  0.1597E+02
  13.448  0.1975E+00  0.1597E+02
  13.458  0.1918E+00  0.1597E+02
  13.468  0.1862E+00  0.1597E+02
  13.478  0.1805E+00  0.1598E+02
  13.488  0.1746E+00  0.1598E+02
  13.498  0.1686E+00  0.1598E+02
  13.508  0.1624E+00  0.1598E+02
  13.518  0.1561E+00  0.1598E+02
  13.528  0.1497E+00  0.1598E+02
  13.538  0.1431E+00  0.1599E+02
  13.548  0.1363E+00  0.1599E+02
  13.558  0.1294E+00  0.1599E+02
  13.568  0.1224E+00  0.1599E+02
  13.578  0.1152E+00  0.1599E+02
  13.588  0.1079E+00  0.1599E+02
  13.598  0.1004E+00  0.1599E+02
  13.608  0.9283E-01  0.1599E+02
  13.618  0.8507E-01  0.1600E+02
  13.628  0.7717E-01  0.1600E+02
